LabVIEW Measurement,
Writer_Version,2
Reader_Version,2
Separator,Comma
Decimal_Separator,.
Multi_Headings,Yes
X_Columns,Multi
Time_Pref,Relative
Operator,daq
Description,Transducer signal file .LVM (ASCII)
Date,2021/08/14
Time,19:22:50.834686279296875
***End_of_Header***,
,
Channels,1,
Samples,4000,
Date,1904/01/01,
Time,00:00:00,
X_Dimension,Time,
X0,0.0000000000000000E+0,
Delta_X,1.000000E-8,
***End_of_Header***,,
X_Value,Untitled,Comment
0.000000,0.000000
1.000000E-8,0.000000
2.000000E-8,0.000000
3.000000E-8,0.000000
4.000000E-8,0.000000
5.000000E-8,0.000000
6.000000E-8,0.000000
7.000000E-8,0.000000
8.000000E-8,0.000000
9.000000E-8,0.000000
1.000000E-7,0.000000
1.100000E-7,0.000000
1.200000E-7,0.000000
1.300000E-7,0.000000
1.400000E-7,0.000000
1.500000E-7,0.000000
1.600000E-7,0.000000
1.700000E-7,0.000000
1.800000E-7,0.000000
1.900000E-7,0.000000
2.000000E-7,0.000000
2.100000E-7,0.000000
2.200000E-7,0.000000
2.300000E-7,0.000000
2.400000E-7,0.000000
2.500000E-7,0.000000
2.600000E-7,0.000000
2.700000E-7,0.000000
2.800000E-7,0.000000
2.900000E-7,0.000000
3.000000E-7,0.000000
3.100000E-7,0.000000
3.200000E-7,0.000000
3.300000E-7,0.000000
3.400000E-7,0.000000
3.500000E-7,0.000000
3.600000E-7,0.000000
3.700000E-7,0.000000
3.800000E-7,0.000000
3.900000E-7,0.000000
4.000000E-7,0.000000
4.100000E-7,0.000000
4.200000E-7,0.000000
4.300000E-7,0.000000
4.400000E-7,0.000000
4.500000E-7,0.000000
4.600000E-7,0.000000
4.700000E-7,0.000000
4.800000E-7,0.000000
4.900000E-7,0.000000
5.000000E-7,0.000000
5.100000E-7,0.000000
5.200000E-7,0.000000
5.300000E-7,0.000000
5.400000E-7,0.000000
5.500000E-7,0.000000
5.600000E-7,0.000000
5.700000E-7,0.000000
5.800000E-7,0.000000
5.900000E-7,0.000000
6.000000E-7,0.000000
6.100000E-7,0.000000
6.200000E-7,0.000000
6.300000E-7,0.000000
6.400000E-7,0.000000
6.500000E-7,0.000000
6.600000E-7,0.000000
6.700000E-7,0.000000
6.800000E-7,0.000000
6.900000E-7,0.000000
7.000000E-7,0.000000
7.100000E-7,0.000000
7.200000E-7,0.000000
7.300000E-7,0.000000
7.400000E-7,0.000000
7.500000E-7,0.000000
7.600000E-7,0.000000
7.700000E-7,0.000000
7.800000E-7,0.000000
7.900000E-7,0.000000
8.000000E-7,0.000000
8.100000E-7,0.000000
8.200000E-7,0.000000
8.300000E-7,0.000000
8.400000E-7,0.000000
8.500000E-7,0.000000
8.600000E-7,0.000000
8.700000E-7,0.000000
8.800000E-7,0.000000
8.900000E-7,0.000000
9.000000E-7,0.000000
9.100000E-7,0.000000
9.200000E-7,0.000000
9.300000E-7,0.000000
9.400000E-7,0.000000
9.500000E-7,0.000000
9.600000E-7,0.000000
9.700000E-7,0.000000
9.800000E-7,0.000000
9.900000E-7,0.000000
1.000000E-6,0.000000
1.010000E-6,0.000000
1.020000E-6,0.000000
1.030000E-6,0.000000
1.040000E-6,0.000000
1.050000E-6,0.000000
1.060000E-6,0.000000
1.070000E-6,0.000000
1.080000E-6,0.000000
1.090000E-6,0.000000
1.100000E-6,0.000000
1.110000E-6,0.000000
1.120000E-6,0.000000
1.130000E-6,0.000000
1.140000E-6,0.000000
1.150000E-6,0.000000
1.160000E-6,0.000000
1.170000E-6,0.000000
1.180000E-6,0.000000
1.190000E-6,0.000000
1.200000E-6,0.000000
1.210000E-6,0.000000
1.220000E-6,0.000000
1.230000E-6,0.000000
1.240000E-6,0.000000
1.250000E-6,0.000000
1.260000E-6,0.000000
1.270000E-6,0.000000
1.280000E-6,0.000000
1.290000E-6,0.000000
1.300000E-6,0.000000
1.310000E-6,0.000000
1.320000E-6,0.000000
1.330000E-6,0.000000
1.340000E-6,0.000000
1.350000E-6,0.000000
1.360000E-6,0.000000
1.370000E-6,0.000000
1.380000E-6,0.000000
1.390000E-6,0.000000
1.400000E-6,0.000000
1.410000E-6,0.000000
1.420000E-6,0.000000
1.430000E-6,0.000000
1.440000E-6,0.000000
1.450000E-6,0.000000
1.460000E-6,0.000000
1.470000E-6,0.000000
1.480000E-6,0.000000
1.490000E-6,0.000000
1.500000E-6,0.000000
1.510000E-6,0.000000
1.520000E-6,0.000000
1.530000E-6,0.000000
1.540000E-6,0.000000
1.550000E-6,0.000000
1.560000E-6,0.000000
1.570000E-6,0.000000
1.580000E-6,0.000000
1.590000E-6,0.000000
1.600000E-6,0.000000
1.610000E-6,0.000000
1.620000E-6,0.000000
1.630000E-6,0.000000
1.640000E-6,0.000000
1.650000E-6,0.000000
1.660000E-6,0.000000
1.670000E-6,0.000000
1.680000E-6,0.000000
1.690000E-6,0.000000
1.700000E-6,0.000000
1.710000E-6,0.000000
1.720000E-6,0.000000
1.730000E-6,0.000000
1.740000E-6,0.000000
1.750000E-6,0.000000
1.760000E-6,0.000000
1.770000E-6,0.000000
1.780000E-6,0.000000
1.790000E-6,0.000000
1.800000E-6,0.000000
1.810000E-6,0.000000
1.820000E-6,0.000000
1.830000E-6,0.000000
1.840000E-6,0.000000
1.850000E-6,0.000000
1.860000E-6,0.000000
1.870000E-6,0.000000
1.880000E-6,0.000000
1.890000E-6,0.000000
1.900000E-6,0.000000
1.910000E-6,0.000000
1.920000E-6,0.000000
1.930000E-6,0.000000
1.940000E-6,0.000000
1.950000E-6,0.000000
1.960000E-6,0.000000
1.970000E-6,0.000000
1.980000E-6,0.000000
1.990000E-6,0.000000
2.000000E-6,-0.005203
2.010000E-6,-0.005235
2.020000E-6,-0.005292
2.030000E-6,-0.005291
2.040000E-6,-0.005249
2.050000E-6,-0.005202
2.060000E-6,-0.005177
2.070000E-6,-0.005171
2.080000E-6,-0.005133
2.090000E-6,-0.005060
2.100000E-6,-0.004988
2.110000E-6,-0.004933
2.120000E-6,-0.004897
2.130000E-6,-0.004826
2.140000E-6,-0.004704
2.150000E-6,-0.004590
2.160000E-6,-0.004500
2.170000E-6,-0.004427
2.180000E-6,-0.004326
2.190000E-6,-0.004183
2.200000E-6,-0.004060
2.210000E-6,-0.003953
2.220000E-6,-0.003859
2.230000E-6,-0.003734
2.240000E-6,-0.003575
2.250000E-6,-0.003441
2.260000E-6,-0.003301
2.270000E-6,-0.003163
2.280000E-6,-0.003005
2.290000E-6,-0.002789
2.300000E-6,-0.002596
2.310000E-6,-0.002452
2.320000E-6,-0.002314
2.330000E-6,-0.002143
2.340000E-6,-0.001910
2.350000E-6,-0.001693
2.360000E-6,-0.001520
2.370000E-6,-0.001343
2.380000E-6,-0.001130
2.390000E-6,-0.000873
2.400000E-6,-0.000659
2.410000E-6,-0.000512
2.420000E-6,-0.000361
2.430000E-6,-0.000154
2.440000E-6,0.000108
2.450000E-6,0.000326
2.460000E-6,0.000474
2.470000E-6,0.000618
2.480000E-6,0.000815
2.490000E-6,0.001059
2.500000E-6,0.001257
2.510000E-6,0.001405
2.520000E-6,0.001550
2.530000E-6,0.001708
2.540000E-6,0.001916
2.550000E-6,0.002084
2.560000E-6,0.002208
2.570000E-6,0.002353
2.580000E-6,0.002535
2.590000E-6,0.002744
2.600000E-6,0.002898
2.610000E-6,0.003007
2.620000E-6,0.003109
2.630000E-6,0.003245
2.640000E-6,0.003420
2.650000E-6,0.003536
2.660000E-6,0.003611
2.670000E-6,0.003706
2.680000E-6,0.003791
2.690000E-6,0.003888
2.700000E-6,0.003983
2.710000E-6,0.004100
2.720000E-6,0.004222
2.730000E-6,0.004298
2.740000E-6,0.004362
2.750000E-6,0.004386
2.760000E-6,0.004401
2.770000E-6,0.004449
2.780000E-6,0.004500
2.790000E-6,0.004526
2.800000E-6,0.004513
2.810000E-6,0.004520
2.820000E-6,0.004548
2.830000E-6,0.004566
2.840000E-6,0.004574
2.850000E-6,0.004552
2.860000E-6,0.004515
2.870000E-6,0.004477
2.880000E-6,0.004439
2.890000E-6,0.004394
2.900000E-6,0.004314
2.910000E-6,0.004239
2.920000E-6,0.004183
2.930000E-6,0.004115
2.940000E-6,0.004055
2.950000E-6,0.003978
2.960000E-6,0.003887
2.970000E-6,0.003772
2.980000E-6,0.003638
2.990000E-6,0.003536
3.000000E-6,0.003441
3.010000E-6,0.003326
3.020000E-6,0.003171
3.030000E-6,0.003017
3.040000E-6,0.002887
3.050000E-6,0.002750
3.060000E-6,0.002618
3.070000E-6,0.002467
3.080000E-6,0.002323
3.090000E-6,0.002203
3.100000E-6,0.002057
3.110000E-6,0.001893
3.120000E-6,0.001719
3.130000E-6,0.001556
3.140000E-6,0.001430
3.150000E-6,0.001303
3.160000E-6,0.001143
3.170000E-6,0.000961
3.180000E-6,0.000805
3.190000E-6,0.000665
3.200000E-6,0.000509
3.210000E-6,0.000350
3.220000E-6,0.000160
3.230000E-6,5.617003E-7
3.240000E-6,-0.000118
3.250000E-6,-0.000265
3.260000E-6,-0.000426
3.270000E-6,-0.000589
3.280000E-6,-0.000727
3.290000E-6,-0.000844
3.300000E-6,-0.000981
3.310000E-6,-0.001114
3.320000E-6,-0.001255
3.330000E-6,-0.001385
3.340000E-6,-0.001483
3.350000E-6,-0.001599
3.360000E-6,-0.001698
3.370000E-6,-0.001806
3.380000E-6,-0.001927
3.390000E-6,-0.002013
3.400000E-6,-0.002093
3.410000E-6,-0.002169
3.420000E-6,-0.002269
3.430000E-6,-0.002378
3.440000E-6,-0.002452
3.450000E-6,-0.002510
3.460000E-6,-0.002562
3.470000E-6,-0.002648
3.480000E-6,-0.002733
3.490000E-6,-0.002766
3.500000E-6,-0.002788
3.510000E-6,-0.002803
3.520000E-6,-0.002855
3.530000E-6,-0.002923
3.540000E-6,-0.002938
3.550000E-6,-0.002947
3.560000E-6,-0.002959
3.570000E-6,-0.002983
3.580000E-6,-0.003005
3.590000E-6,-0.002981
3.600000E-6,-0.002958
3.610000E-6,-0.002940
3.620000E-6,-0.002947
3.630000E-6,-0.002940
3.640000E-6,-0.002890
3.650000E-6,-0.002867
3.660000E-6,-0.002849
3.670000E-6,-0.002849
3.680000E-6,-0.002819
3.690000E-6,-0.002734
3.700000E-6,-0.002673
3.710000E-6,-0.002629
3.720000E-6,-0.002597
3.730000E-6,-0.002525
3.740000E-6,-0.002418
3.750000E-6,-0.002347
3.760000E-6,-0.002288
3.770000E-6,-0.002255
3.780000E-6,-0.002191
3.790000E-6,-0.002083
3.800000E-6,-0.001997
3.810000E-6,-0.001911
3.820000E-6,-0.001839
3.830000E-6,-0.001738
3.840000E-6,-0.001618
3.850000E-6,-0.001520
3.860000E-6,-0.001411
3.870000E-6,-0.001320
3.880000E-6,-0.001216
3.890000E-6,-0.001086
3.900000E-6,-0.000975
3.910000E-6,-0.000877
3.920000E-6,-0.000793
3.930000E-6,-0.000678
3.940000E-6,-0.000541
3.950000E-6,-0.000447
3.960000E-6,-0.000360
3.970000E-6,-0.000281
3.980000E-6,-0.000187
3.990000E-6,-6.712922E-5
4.000000E-6,2.118789E-5
4.010000E-6,0.000108
4.020000E-6,0.000201
4.030000E-6,0.000320
4.040000E-6,0.000446
4.050000E-6,0.000542
4.060000E-6,0.000650
4.070000E-6,0.000732
4.080000E-6,0.000825
4.090000E-6,0.000919
4.100000E-6,0.000979
4.110000E-6,0.001062
4.120000E-6,0.001127
4.130000E-6,0.001184
4.140000E-6,0.001239
4.150000E-6,0.001265
4.160000E-6,0.001323
4.170000E-6,0.001396
4.180000E-6,0.001466
4.190000E-6,0.001540
4.200000E-6,0.001584
4.210000E-6,0.001623
4.220000E-6,0.001648
4.230000E-6,0.001668
4.240000E-6,0.001699
4.250000E-6,0.001702
4.260000E-6,0.001696
4.270000E-6,0.001721
4.280000E-6,0.001746
4.290000E-6,0.001762
4.300000E-6,0.001759
4.310000E-6,0.001751
4.320000E-6,0.001762
4.330000E-6,0.001768
4.340000E-6,0.001781
4.350000E-6,0.001781
4.360000E-6,0.001756
4.370000E-6,0.001746
4.380000E-6,0.001735
4.390000E-6,0.001726
4.400000E-6,0.001700
4.410000E-6,0.001666
4.420000E-6,0.001674
4.430000E-6,0.001682
4.440000E-6,0.001681
4.450000E-6,0.001654
4.460000E-6,0.001618
4.470000E-6,0.001600
4.480000E-6,0.001567
4.490000E-6,0.001546
4.500000E-6,0.001515
4.510000E-6,0.001472
4.520000E-6,0.001442
4.530000E-6,0.001402
4.540000E-6,0.001363
4.550000E-6,0.001301
4.560000E-6,0.001221
4.570000E-6,0.001184
4.580000E-6,0.001139
4.590000E-6,0.001087
4.600000E-6,0.001034
4.610000E-6,0.000966
4.620000E-6,0.000937
4.630000E-6,0.000897
4.640000E-6,0.000837
4.650000E-6,0.000774
4.660000E-6,0.000689
4.670000E-6,0.000631
4.680000E-6,0.000575
4.690000E-6,0.000498
4.700000E-6,0.000431
4.710000E-6,0.000362
4.720000E-6,0.000332
4.730000E-6,0.000317
4.740000E-6,0.000274
4.750000E-6,0.000226
4.760000E-6,0.000186
4.770000E-6,0.000162
4.780000E-6,0.000129
4.790000E-6,8.416562E-5
4.800000E-6,2.294555E-5
4.810000E-6,-3.410219E-5
4.820000E-6,-5.985025E-5
4.830000E-6,-9.037986E-5
4.840000E-6,-0.000139
4.850000E-6,-0.000193
4.860000E-6,-0.000240
4.870000E-6,-0.000265
4.880000E-6,-0.000290
4.890000E-6,-0.000337
4.900000E-6,-0.000386
4.910000E-6,-0.000427
4.920000E-6,-0.000458
4.930000E-6,-0.000502
4.940000E-6,-0.000546
4.950000E-6,-0.000566
4.960000E-6,-0.000583
4.970000E-6,-0.000596
4.980000E-6,-0.000615
4.990000E-6,-0.000631
5.000000E-6,-0.000657
5.010000E-6,-0.000683
5.020000E-6,-0.000688
5.030000E-6,-0.000712
5.040000E-6,-0.000735
5.050000E-6,-0.000749
5.060000E-6,-0.000768
5.070000E-6,-0.000783
5.080000E-6,-0.000806
5.090000E-6,-0.000820
5.100000E-6,-0.000831
5.110000E-6,-0.000860
5.120000E-6,-0.000881
5.130000E-6,-0.000896
5.140000E-6,-0.000903
5.150000E-6,-0.000900
5.160000E-6,-0.000912
5.170000E-6,-0.000917
5.180000E-6,-0.000925
5.190000E-6,-0.000928
5.200000E-6,-0.000914
5.210000E-6,-0.000912
5.220000E-6,-0.000907
5.230000E-6,-0.000913
5.240000E-6,-0.000911
5.250000E-6,-0.000884
5.260000E-6,-0.000867
5.270000E-6,-0.000851
5.280000E-6,-0.000838
5.290000E-6,-0.000829
5.300000E-6,-0.000818
5.310000E-6,-0.000808
5.320000E-6,-0.000796
5.330000E-6,-0.000785
5.340000E-6,-0.000765
5.350000E-6,-0.000756
5.360000E-6,-0.000752
5.370000E-6,-0.000730
5.380000E-6,-0.000727
5.390000E-6,-0.000725
5.400000E-6,-0.000718
5.410000E-6,-0.000727
5.420000E-6,-0.000712
5.430000E-6,-0.000700
5.440000E-6,-0.000690
5.450000E-6,-0.000679
5.460000E-6,-0.000686
5.470000E-6,-0.000684
5.480000E-6,-0.000686
5.490000E-6,-0.000670
5.500000E-6,-0.000655
5.510000E-6,-0.000656
5.520000E-6,-0.000635
5.530000E-6,-0.000604
5.540000E-6,-0.000584
5.550000E-6,-0.000571
5.560000E-6,-0.000559
5.570000E-6,-0.000546
5.580000E-6,-0.000527
5.590000E-6,-0.000489
5.600000E-6,-0.000448
5.610000E-6,-0.000432
5.620000E-6,-0.000419
5.630000E-6,-0.000394
5.640000E-6,-0.000378
5.650000E-6,-0.000373
5.660000E-6,-0.000357
5.670000E-6,-0.000316
5.680000E-6,-0.000270
5.690000E-6,-0.000232
5.700000E-6,-0.000210
5.710000E-6,-0.000190
5.720000E-6,-0.000146
5.730000E-6,-0.000103
5.740000E-6,-8.075327E-5
5.750000E-6,-7.875267E-5
5.760000E-6,-4.951070E-5
5.770000E-6,1.368875E-5
5.780000E-6,6.481632E-5
5.790000E-6,9.064282E-5
5.800000E-6,8.041024E-5
5.810000E-6,9.179789E-5
5.820000E-6,0.000143
5.830000E-6,0.000185
5.840000E-6,0.000213
5.850000E-6,0.000209
5.860000E-6,0.000230
5.870000E-6,0.000294
5.880000E-6,0.000337
5.890000E-6,0.000359
5.900000E-6,0.000357
5.910000E-6,0.000368
5.920000E-6,0.000413
5.930000E-6,0.000463
5.940000E-6,0.000494
5.950000E-6,0.000499
5.960000E-6,0.000534
5.970000E-6,0.000599
5.980000E-6,0.000661
5.990000E-6,0.000709
6.000000E-6,0.000692
6.010000E-6,0.000692
6.020000E-6,0.000741
6.030000E-6,0.000762
6.040000E-6,0.000774
6.050000E-6,0.000770
6.060000E-6,0.000794
6.070000E-6,0.000853
6.080000E-6,0.000891
6.090000E-6,0.000897
6.100000E-6,0.000865
6.110000E-6,0.000861
6.120000E-6,0.000901
6.130000E-6,0.000921
6.140000E-6,0.000902
6.150000E-6,0.000864
6.160000E-6,0.000868
6.170000E-6,0.000912
6.180000E-6,0.000950
6.190000E-6,0.000950
6.200000E-6,0.000919
6.210000E-6,0.000925
6.220000E-6,0.000958
6.230000E-6,0.000963
6.240000E-6,0.000930
6.250000E-6,0.000896
6.260000E-6,0.000892
6.270000E-6,0.000890
6.280000E-6,0.000873
6.290000E-6,0.000825
6.300000E-6,0.000794
6.310000E-6,0.000812
6.320000E-6,0.000824
6.330000E-6,0.000807
6.340000E-6,0.000784
6.350000E-6,0.000782
6.360000E-6,0.000781
6.370000E-6,0.000766
6.380000E-6,0.000738
6.390000E-6,0.000701
6.400000E-6,0.000685
6.410000E-6,0.000683
6.420000E-6,0.000663
6.430000E-6,0.000623
6.440000E-6,0.000586
6.450000E-6,0.000553
6.460000E-6,0.000540
6.470000E-6,0.000520
6.480000E-6,0.000483
6.490000E-6,0.000443
6.500000E-6,0.000404
6.510000E-6,0.000389
6.520000E-6,0.000366
6.530000E-6,0.000306
6.540000E-6,0.000252
6.550000E-6,0.000234
6.560000E-6,0.000233
6.570000E-6,0.000209
6.580000E-6,0.000152
6.590000E-6,0.000105
6.600000E-6,9.771210E-5
6.610000E-6,9.986373E-5
6.620000E-6,6.876047E-5
6.630000E-6,5.681165E-6
6.640000E-6,-5.701502E-5
6.650000E-6,-9.593651E-5
6.660000E-6,-0.000114
6.670000E-6,-0.000152
6.680000E-6,-0.000224
6.690000E-6,-0.000279
6.700000E-6,-0.000279
6.710000E-6,-0.000271
6.720000E-6,-0.000314
6.730000E-6,-0.000379
6.740000E-6,-0.000421
6.750000E-6,-0.000434
6.760000E-6,-0.000449
6.770000E-6,-0.000491
6.780000E-6,-0.000543
6.790000E-6,-0.000569
6.800000E-6,-0.000560
6.810000E-6,-0.000554
6.820000E-6,-0.000588
6.830000E-6,-0.000628
6.840000E-6,-0.000631
6.850000E-6,-0.000634
6.860000E-6,-0.000650
6.870000E-6,-0.000670
6.880000E-6,-0.000708
6.890000E-6,-0.000720
6.900000E-6,-0.000726
6.910000E-6,-0.000755
6.920000E-6,-0.000791
6.930000E-6,-0.000816
6.940000E-6,-0.000809
6.950000E-6,-0.000794
6.960000E-6,-0.000802
6.970000E-6,-0.000819
6.980000E-6,-0.000815
6.990000E-6,-0.000792
7.000000E-6,-0.000774
7.010000E-6,-0.000774
7.020000E-6,-0.000780
7.030000E-6,-0.000772
7.040000E-6,-0.000750
7.050000E-6,-0.000733
7.060000E-6,-0.000718
7.070000E-6,-0.000717
7.080000E-6,-0.000706
7.090000E-6,-0.000669
7.100000E-6,-0.000650
7.110000E-6,-0.000640
7.120000E-6,-0.000636
7.130000E-6,-0.000615
7.140000E-6,-0.000570
7.150000E-6,-0.000548
7.160000E-6,-0.000516
7.170000E-6,-0.000496
7.180000E-6,-0.000489
7.190000E-6,-0.000440
7.200000E-6,-0.000422
7.210000E-6,-0.000408
7.220000E-6,-0.000387
7.230000E-6,-0.000370
7.240000E-6,-0.000306
7.250000E-6,-0.000286
7.260000E-6,-0.000289
7.270000E-6,-0.000259
7.280000E-6,-0.000231
7.290000E-6,-0.000168
7.300000E-6,-0.000122
7.310000E-6,-9.416338E-5
7.320000E-6,-4.155518E-5
7.330000E-6,9.170604E-6
7.340000E-6,6.577455E-5
7.350000E-6,8.716138E-5
7.360000E-6,9.790978E-5
7.370000E-6,0.000126
7.380000E-6,0.000144
7.390000E-6,0.000170
7.400000E-6,0.000194
7.410000E-6,0.000235
7.420000E-6,0.000274
7.430000E-6,0.000303
7.440000E-6,0.000334
7.450000E-6,0.000348
7.460000E-6,0.000389
7.470000E-6,0.000441
7.480000E-6,0.000470
7.490000E-6,0.000493
7.500000E-6,0.000498
7.510000E-6,0.000513
7.520000E-6,0.000541
7.530000E-6,0.000575
7.540000E-6,0.000623
7.550000E-6,0.000636
7.560000E-6,0.000662
7.570000E-6,0.000695
7.580000E-6,0.000712
7.590000E-6,0.000747
7.600000E-6,0.000743
7.610000E-6,0.000742
7.620000E-6,0.000759
7.630000E-6,0.000782
7.640000E-6,0.000814
7.650000E-6,0.000823
7.660000E-6,0.000834
7.670000E-6,0.000829
7.680000E-6,0.000841
7.690000E-6,0.000865
7.700000E-6,0.000858
7.710000E-6,0.000859
7.720000E-6,0.000857
7.730000E-6,0.000861
7.740000E-6,0.000874
7.750000E-6,0.000887
7.760000E-6,0.000899
7.770000E-6,0.000899
7.780000E-6,0.000910
7.790000E-6,0.000914
7.800000E-6,0.000891
7.810000E-6,0.000869
7.820000E-6,0.000855
7.830000E-6,0.000844
7.840000E-6,0.000822
7.850000E-6,0.000782
7.860000E-6,0.000754
7.870000E-6,0.000721
7.880000E-6,0.000685
7.890000E-6,0.000651
7.900000E-6,0.000620
7.910000E-6,0.000591
7.920000E-6,0.000556
7.930000E-6,0.000537
7.940000E-6,0.000517
7.950000E-6,0.000468
7.960000E-6,0.000429
7.970000E-6,0.000420
7.980000E-6,0.000394
7.990000E-6,0.000346
8.000000E-6,0.000293
8.010000E-6,0.000256
8.020000E-6,0.000227
8.030000E-6,0.000181
8.040000E-6,0.000121
8.050000E-6,5.964601E-5
8.060000E-6,1.569521E-5
8.070000E-6,-2.276871E-5
8.080000E-6,-7.919776E-5
8.090000E-6,-0.000153
8.100000E-6,-0.000222
8.110000E-6,-0.000270
8.120000E-6,-0.000304
8.130000E-6,-0.000339
8.140000E-6,-0.000395
8.150000E-6,-0.000449
8.160000E-6,-0.000492
8.170000E-6,-0.000527
8.180000E-6,-0.000565
8.190000E-6,-0.000613
8.200000E-6,-0.000655
8.210000E-6,-0.000690
8.220000E-6,-0.000714
8.230000E-6,-0.000757
8.240000E-6,-0.000812
8.250000E-6,-0.000854
8.260000E-6,-0.000877
8.270000E-6,-0.000889
8.280000E-6,-0.000926
8.290000E-6,-0.000962
8.300000E-6,-0.000980
8.310000E-6,-0.000995
8.320000E-6,-0.001013
8.330000E-6,-0.001036
8.340000E-6,-0.001042
8.350000E-6,-0.001063
8.360000E-6,-0.001081
8.370000E-6,-0.001093
8.380000E-6,-0.001142
8.390000E-6,-0.001173
8.400000E-6,-0.001176
8.410000E-6,-0.001179
8.420000E-6,-0.001171
8.430000E-6,-0.001194
8.440000E-6,-0.001213
8.450000E-6,-0.001217
8.460000E-6,-0.001225
8.470000E-6,-0.001209
8.480000E-6,-0.001231
8.490000E-6,-0.001239
8.500000E-6,-0.001215
8.510000E-6,-0.001200
8.520000E-6,-0.001190
8.530000E-6,-0.001209
8.540000E-6,-0.001200
8.550000E-6,-0.001164
8.560000E-6,-0.001144
8.570000E-6,-0.001107
8.580000E-6,-0.001074
8.590000E-6,-0.001042
8.600000E-6,-0.001007
8.610000E-6,-0.000980
8.620000E-6,-0.000930
8.630000E-6,-0.000889
8.640000E-6,-0.000835
8.650000E-6,-0.000766
8.660000E-6,-0.000732
8.670000E-6,-0.000682
8.680000E-6,-0.000654
8.690000E-6,-0.000642
8.700000E-6,-0.000606
8.710000E-6,-0.000586
8.720000E-6,-0.000548
8.730000E-6,-0.000505
8.740000E-6,-0.000461
8.750000E-6,-0.000418
8.760000E-6,-0.000384
8.770000E-6,-0.000332
8.780000E-6,-0.000300
8.790000E-6,-0.000276
8.800000E-6,-0.000245
8.810000E-6,-0.000222
8.820000E-6,-0.000180
8.830000E-6,-0.000157
8.840000E-6,-0.000135
8.850000E-6,-9.992216E-5
8.860000E-6,-6.387028E-5
8.870000E-6,-7.687345E-6
8.880000E-6,7.580773E-6
8.890000E-6,2.421451E-5
8.900000E-6,6.350375E-5
8.910000E-6,0.000107
8.920000E-6,0.000137
8.930000E-6,0.000133
8.940000E-6,0.000148
8.950000E-6,0.000184
8.960000E-6,0.000230
8.970000E-6,0.000266
8.980000E-6,0.000255
8.990000E-6,0.000270
9.000000E-6,0.000323
9.010000E-6,0.000363
9.020000E-6,0.000388
9.030000E-6,0.000390
9.040000E-6,0.000407
9.050000E-6,0.000430
9.060000E-6,0.000456
9.070000E-6,0.000490
9.080000E-6,0.000506
9.090000E-6,0.000521
9.100000E-6,0.000518
9.110000E-6,0.000518
9.120000E-6,0.000526
9.130000E-6,0.000505
9.140000E-6,0.000495
9.150000E-6,0.000505
9.160000E-6,0.000520
9.170000E-6,0.000538
9.180000E-6,0.000523
9.190000E-6,0.000504
9.200000E-6,0.000508
9.210000E-6,0.000517
9.220000E-6,0.000533
9.230000E-6,0.000526
9.240000E-6,0.000505
9.250000E-6,0.000503
9.260000E-6,0.000498
9.270000E-6,0.000495
9.280000E-6,0.000478
9.290000E-6,0.000452
9.300000E-6,0.000466
9.310000E-6,0.000492
9.320000E-6,0.000517
9.330000E-6,0.000512
9.340000E-6,0.000486
9.350000E-6,0.000469
9.360000E-6,0.000463
9.370000E-6,0.000469
9.380000E-6,0.000466
9.390000E-6,0.000465
9.400000E-6,0.000471
9.410000E-6,0.000476
9.420000E-6,0.000478
9.430000E-6,0.000462
9.440000E-6,0.000438
9.450000E-6,0.000431
9.460000E-6,0.000436
9.470000E-6,0.000430
9.480000E-6,0.000415
9.490000E-6,0.000385
9.500000E-6,0.000352
9.510000E-6,0.000339
9.520000E-6,0.000324
9.530000E-6,0.000300
9.540000E-6,0.000276
9.550000E-6,0.000264
9.560000E-6,0.000267
9.570000E-6,0.000265
9.580000E-6,0.000250
9.590000E-6,0.000232
9.600000E-6,0.000235
9.610000E-6,0.000255
9.620000E-6,0.000253
9.630000E-6,0.000250
9.640000E-6,0.000241
9.650000E-6,0.000221
9.660000E-6,0.000224
9.670000E-6,0.000219
9.680000E-6,0.000214
9.690000E-6,0.000215
9.700000E-6,0.000202
9.710000E-6,0.000200
9.720000E-6,0.000179
9.730000E-6,0.000143
9.740000E-6,0.000133
9.750000E-6,0.000123
9.760000E-6,0.000116
9.770000E-6,9.065498E-5
9.780000E-6,6.453294E-5
9.790000E-6,6.258613E-5
9.800000E-6,5.090245E-5
9.810000E-6,4.734177E-5
9.820000E-6,4.189711E-5
9.830000E-6,3.853137E-5
9.840000E-6,4.299999E-5
9.850000E-6,3.363993E-5
9.860000E-6,2.457410E-5
9.870000E-6,1.192092E-5
9.880000E-6,9.429412E-6
9.890000E-6,-2.696418E-6
9.900000E-6,-3.185077E-5
9.910000E-6,-3.268354E-5
9.920000E-6,-5.091627E-5
9.930000E-6,-6.451059E-5
9.940000E-6,-5.030853E-5
9.950000E-6,-3.461166E-5
9.960000E-6,-7.787744E-6
9.970000E-6,-1.368215E-6
9.980000E-6,1.064302E-5
9.990000E-6,1.830851E-5
1.000000E-5,1.206528E-5
1.001000E-5,1.963106E-5
1.002000E-5,1.523214E-5
1.003000E-5,2.651146E-5
1.004000E-5,4.898657E-5
1.005000E-5,5.695738E-5
1.006000E-5,7.231446E-5
1.007000E-5,6.950973E-5
1.008000E-5,5.893153E-5
1.009000E-5,4.476869E-5
1.010000E-5,3.300295E-5
1.011000E-5,4.104528E-5
1.012000E-5,4.095685E-5
1.013000E-5,4.469297E-5
1.014000E-5,4.433681E-5
1.015000E-5,4.392511E-5
1.016000E-5,5.899962E-5
1.017000E-5,5.788578E-5
1.018000E-5,5.866583E-5
1.019000E-5,4.767179E-5
1.020000E-5,2.924119E-5
1.021000E-5,2.115922E-5
1.022000E-5,1.689245E-6
1.023000E-5,-1.523792E-6
1.024000E-5,-2.673183E-6
1.025000E-5,-9.603042E-6
1.026000E-5,-1.237681E-5
1.027000E-5,-2.474065E-5
1.028000E-5,-3.078147E-5
1.029000E-5,-1.712722E-5
1.030000E-5,3.817811E-6
1.031000E-5,2.398184E-5
1.032000E-5,3.365060E-5
1.033000E-5,3.513987E-5
1.034000E-5,4.428910E-5
1.035000E-5,7.245492E-5
1.036000E-5,9.946615E-5
1.037000E-5,0.000108
1.038000E-5,0.000110
1.039000E-5,0.000114
1.040000E-5,0.000127
1.041000E-5,0.000155
1.042000E-5,0.000168
1.043000E-5,0.000171
1.044000E-5,0.000192
1.045000E-5,0.000223
1.046000E-5,0.000240
1.047000E-5,0.000231
1.048000E-5,0.000234
1.049000E-5,0.000263
1.050000E-5,0.000295
1.051000E-5,0.000315
1.052000E-5,0.000321
1.053000E-5,0.000322
1.054000E-5,0.000328
1.055000E-5,0.000333
1.056000E-5,0.000315
1.057000E-5,0.000300
1.058000E-5,0.000307
1.059000E-5,0.000316
1.060000E-5,0.000309
1.061000E-5,0.000289
1.062000E-5,0.000270
1.063000E-5,0.000262
1.064000E-5,0.000268
1.065000E-5,0.000269
1.066000E-5,0.000256
1.067000E-5,0.000228
1.068000E-5,0.000210
1.069000E-5,0.000198
1.070000E-5,0.000177
1.071000E-5,0.000152
1.072000E-5,0.000134
1.073000E-5,0.000130
1.074000E-5,0.000125
1.075000E-5,0.000117
1.076000E-5,9.959503E-5
1.077000E-5,8.239756E-5
1.078000E-5,7.153593E-5
1.079000E-5,6.290775E-5
1.080000E-5,6.032851E-5
1.081000E-5,3.832741E-5
1.082000E-5,1.513868E-5
1.083000E-5,1.609320E-5
1.084000E-5,2.087221E-5
1.085000E-5,2.155726E-5
1.086000E-5,1.635639E-5
1.087000E-5,5.495502E-6
1.088000E-5,2.027897E-5
1.089000E-5,4.031107E-5
1.090000E-5,4.205796E-5
1.091000E-5,3.396311E-5
1.092000E-5,2.805756E-5
1.093000E-5,1.844229E-5
1.094000E-5,-1.221193E-5
1.095000E-5,-3.200092E-5
1.096000E-5,-2.964181E-5
1.097000E-5,-2.538168E-5
1.098000E-5,-3.872129E-5
1.099000E-5,-5.344963E-5
1.100000E-5,-5.006866E-5
1.101000E-5,-5.256234E-5
1.102000E-5,-6.653657E-5
1.103000E-5,-8.183292E-5
1.104000E-5,-8.866686E-5
1.105000E-5,-6.791713E-5
1.106000E-5,-4.394524E-5
1.107000E-5,-3.827378E-5
1.108000E-5,-4.052240E-5
1.109000E-5,-3.291310E-5
1.110000E-5,-2.941913E-5
1.111000E-5,-3.572078E-5
1.112000E-5,-3.007957E-5
1.113000E-5,-4.208194E-5
1.114000E-5,-6.717159E-5
1.115000E-5,-6.792009E-5
1.116000E-5,-6.270848E-5
1.117000E-5,-5.953492E-5
1.118000E-5,-6.027128E-5
1.119000E-5,-7.059890E-5
1.120000E-5,-7.266538E-5
1.121000E-5,-8.036991E-5
1.122000E-5,-9.543429E-5
1.123000E-5,-0.000116
1.124000E-5,-0.000125
1.125000E-5,-0.000109
1.126000E-5,-0.000111
1.127000E-5,-0.000110
1.128000E-5,-0.000109
1.129000E-5,-0.000118
1.130000E-5,-0.000111
1.131000E-5,-9.633663E-5
1.132000E-5,-7.608321E-5
1.133000E-5,-8.365470E-5
1.134000E-5,-8.887396E-5
1.135000E-5,-7.045376E-5
1.136000E-5,-7.202983E-5
1.137000E-5,-7.149356E-5
1.138000E-5,-7.280871E-5
1.139000E-5,-7.007758E-5
1.140000E-5,-5.374224E-5
1.141000E-5,-6.512144E-5
1.142000E-5,-7.986338E-5
1.143000E-5,-9.199362E-5
1.144000E-5,-0.000107
1.145000E-5,-0.000107
1.146000E-5,-0.000119
1.147000E-5,-0.000137
1.148000E-5,-0.000158
1.149000E-5,-0.000160
1.150000E-5,-0.000139
1.151000E-5,-0.000157
1.152000E-5,-0.000178
1.153000E-5,-0.000194
1.154000E-5,-0.000203
1.155000E-5,-0.000191
1.156000E-5,-0.000209
1.157000E-5,-0.000225
1.158000E-5,-0.000238
1.159000E-5,-0.000244
1.160000E-5,-0.000232
1.161000E-5,-0.000255
1.162000E-5,-0.000275
1.163000E-5,-0.000288
1.164000E-5,-0.000273
1.165000E-5,-0.000244
1.166000E-5,-0.000274
1.167000E-5,-0.000289
1.168000E-5,-0.000278
1.169000E-5,-0.000271
1.170000E-5,-0.000254
1.171000E-5,-0.000266
1.172000E-5,-0.000295
1.173000E-5,-0.000278
1.174000E-5,-0.000241
1.175000E-5,-0.000231
1.176000E-5,-0.000250
1.177000E-5,-0.000273
1.178000E-5,-0.000261
1.179000E-5,-0.000219
1.180000E-5,-0.000200
1.181000E-5,-0.000228
1.182000E-5,-0.000252
1.183000E-5,-0.000231
1.184000E-5,-0.000206
1.185000E-5,-0.000209
1.186000E-5,-0.000234
1.187000E-5,-0.000267
1.188000E-5,-0.000249
1.189000E-5,-0.000206
1.190000E-5,-0.000203
1.191000E-5,-0.000248
1.192000E-5,-0.000282
1.193000E-5,-0.000266
1.194000E-5,-0.000253
1.195000E-5,-0.000272
1.196000E-5,-0.000325
1.197000E-5,-0.000359
1.198000E-5,-0.000344
1.199000E-5,-0.000328
1.200000E-5,-0.000339
1.201000E-5,-0.000385
1.202000E-5,-0.000407
1.203000E-5,-0.000377
1.204000E-5,-0.000339
1.205000E-5,-0.000326
1.206000E-5,-0.000348
1.207000E-5,-0.000336
1.208000E-5,-0.000282
1.209000E-5,-0.000250
1.210000E-5,-0.000251
1.211000E-5,-0.000289
1.212000E-5,-0.000298
1.213000E-5,-0.000267
1.214000E-5,-0.000247
1.215000E-5,-0.000250
1.216000E-5,-0.000292
1.217000E-5,-0.000300
1.218000E-5,-0.000267
1.219000E-5,-0.000258
1.220000E-5,-0.000259
1.221000E-5,-0.000287
1.222000E-5,-0.000289
1.223000E-5,-0.000257
1.224000E-5,-0.000252
1.225000E-5,-0.000253
1.226000E-5,-0.000271
1.227000E-5,-0.000258
1.228000E-5,-0.000213
1.229000E-5,-0.000212
1.230000E-5,-0.000230
1.231000E-5,-0.000251
1.232000E-5,-0.000233
1.233000E-5,-0.000193
1.234000E-5,-0.000201
1.235000E-5,-0.000221
1.236000E-5,-0.000219
1.237000E-5,-0.000172
1.238000E-5,-0.000125
1.239000E-5,-0.000114
1.240000E-5,-9.957464E-5
1.241000E-5,-8.740641E-5
1.242000E-5,-5.418680E-5
1.243000E-5,-6.573482E-6
1.244000E-5,1.597947E-5
1.245000E-5,3.184592E-5
1.246000E-5,3.930633E-5
1.247000E-5,6.585355E-5
1.248000E-5,9.908583E-5
1.249000E-5,0.000110
1.250000E-5,0.000135
1.251000E-5,0.000142
1.252000E-5,0.000150
1.253000E-5,0.000160
1.254000E-5,0.000148
1.255000E-5,0.000155
1.256000E-5,0.000140
1.257000E-5,0.000148
1.258000E-5,0.000178
1.259000E-5,0.000189
1.260000E-5,0.000223
1.261000E-5,0.000229
1.262000E-5,0.000232
1.263000E-5,0.000265
1.264000E-5,0.000269
1.265000E-5,0.000277
1.266000E-5,0.000278
1.267000E-5,0.000297
1.268000E-5,0.000338
1.269000E-5,0.000329
1.270000E-5,0.000328
1.271000E-5,0.000327
1.272000E-5,0.000335
1.273000E-5,0.000375
1.274000E-5,0.000378
1.275000E-5,0.000380
1.276000E-5,0.000385
1.277000E-5,0.000398
1.278000E-5,0.000442
1.279000E-5,0.000442
1.280000E-5,0.000441
1.281000E-5,0.000419
1.282000E-5,0.000398
1.283000E-5,0.000431
1.284000E-5,0.000432
1.285000E-5,0.000428
1.286000E-5,0.000409
1.287000E-5,0.000385
1.288000E-5,0.000394
1.289000E-5,0.000393
1.290000E-5,0.000403
1.291000E-5,0.000396
1.292000E-5,0.000385
1.293000E-5,0.000404
1.294000E-5,0.000400
1.295000E-5,0.000385
1.296000E-5,0.000366
1.297000E-5,0.000347
1.298000E-5,0.000350
1.299000E-5,0.000334
1.300000E-5,0.000313
1.301000E-5,0.000306
1.302000E-5,0.000281
1.303000E-5,0.000264
1.304000E-5,0.000257
1.305000E-5,0.000260
1.306000E-5,0.000268
1.307000E-5,0.000240
1.308000E-5,0.000221
1.309000E-5,0.000187
1.310000E-5,0.000136
1.311000E-5,0.000108
1.312000E-5,8.905258E-5
1.313000E-5,9.375782E-5
1.314000E-5,7.677744E-5
1.315000E-5,3.699785E-5
1.316000E-5,-1.366994E-6
1.317000E-5,-3.830999E-5
1.318000E-5,-4.663317E-5
1.319000E-5,-5.457606E-5
1.320000E-5,-7.573709E-5
1.321000E-5,-0.000108
1.322000E-5,-0.000138
1.323000E-5,-0.000144
1.324000E-5,-0.000148
1.325000E-5,-0.000157
1.326000E-5,-0.000179
1.327000E-5,-0.000190
1.328000E-5,-0.000163
1.329000E-5,-0.000144
1.330000E-5,-0.000132
1.331000E-5,-0.000144
1.332000E-5,-0.000175
1.333000E-5,-0.000152
1.334000E-5,-0.000125
1.335000E-5,-0.000133
1.336000E-5,-0.000136
1.337000E-5,-0.000129
1.338000E-5,-9.844700E-5
1.339000E-5,-7.305805E-5
1.340000E-5,-6.791922E-5
1.341000E-5,-9.005864E-5
1.342000E-5,-0.000107
1.343000E-5,-7.139946E-5
1.344000E-5,-6.191535E-5
1.345000E-5,-8.376435E-5
1.346000E-5,-0.000109
1.347000E-5,-0.000128
1.348000E-5,-0.000112
1.349000E-5,-0.000128
1.350000E-5,-0.000144
1.351000E-5,-0.000152
1.352000E-5,-0.000171
1.353000E-5,-0.000159
1.354000E-5,-0.000171
1.355000E-5,-0.000185
1.356000E-5,-0.000184
1.357000E-5,-0.000191
1.358000E-5,-0.000188
1.359000E-5,-0.000202
1.360000E-5,-0.000203
1.361000E-5,-0.000204
1.362000E-5,-0.000213
1.363000E-5,-0.000209
1.364000E-5,-0.000230
1.365000E-5,-0.000248
1.366000E-5,-0.000250
1.367000E-5,-0.000255
1.368000E-5,-0.000261
1.369000E-5,-0.000267
1.370000E-5,-0.000264
1.371000E-5,-0.000259
1.372000E-5,-0.000243
1.373000E-5,-0.000222
1.374000E-5,-0.000216
1.375000E-5,-0.000205
1.376000E-5,-0.000195
1.377000E-5,-0.000169
1.378000E-5,-0.000154
1.379000E-5,-0.000152
1.380000E-5,-0.000135
1.381000E-5,-0.000124
1.382000E-5,-0.000104
1.383000E-5,-7.824488E-5
1.384000E-5,-6.506792E-5
1.385000E-5,-6.004726E-5
1.386000E-5,-5.317694E-5
1.387000E-5,-5.424797E-5
1.388000E-5,-6.296482E-5
1.389000E-5,-7.320388E-5
1.390000E-5,-7.712343E-5
1.391000E-5,-6.718174E-5
1.392000E-5,-7.110049E-5
1.393000E-5,-7.670640E-5
1.394000E-5,-7.227407E-5
1.395000E-5,-6.206660E-5
1.396000E-5,-5.214067E-5
1.397000E-5,-5.027077E-5
1.398000E-5,-2.896834E-5
1.399000E-5,-2.582188E-6
1.400000E-5,2.283153E-5
1.401000E-5,3.367272E-5
1.402000E-5,1.880958E-5
1.403000E-5,2.000637E-5
1.404000E-5,4.443643E-5
1.405000E-5,7.177833E-5
1.406000E-5,8.828526E-5
1.407000E-5,9.821736E-5
1.408000E-5,0.000108
1.409000E-5,0.000128
1.410000E-5,0.000154
1.411000E-5,0.000164
1.412000E-5,0.000165
1.413000E-5,0.000161
1.414000E-5,0.000159
1.415000E-5,0.000162
1.416000E-5,0.000171
1.417000E-5,0.000168
1.418000E-5,0.000173
1.419000E-5,0.000208
1.420000E-5,0.000235
1.421000E-5,0.000252
1.422000E-5,0.000238
1.423000E-5,0.000213
1.424000E-5,0.000233
1.425000E-5,0.000262
1.426000E-5,0.000278
1.427000E-5,0.000283
1.428000E-5,0.000300
1.429000E-5,0.000333
1.430000E-5,0.000356
1.431000E-5,0.000393
1.432000E-5,0.000414
1.433000E-5,0.000430
1.434000E-5,0.000464
1.435000E-5,0.000491
1.436000E-5,0.000519
1.437000E-5,0.000511
1.438000E-5,0.000502
1.439000E-5,0.000528
1.440000E-5,0.000529
1.441000E-5,0.000525
1.442000E-5,0.000526
1.443000E-5,0.000553
1.444000E-5,0.000585
1.445000E-5,0.000579
1.446000E-5,0.000561
1.447000E-5,0.000533
1.448000E-5,0.000542
1.449000E-5,0.000578
1.450000E-5,0.000576
1.451000E-5,0.000555
1.452000E-5,0.000525
1.453000E-5,0.000509
1.454000E-5,0.000526
1.455000E-5,0.000504
1.456000E-5,0.000471
1.457000E-5,0.000456
1.458000E-5,0.000442
1.459000E-5,0.000436
1.460000E-5,0.000401
1.461000E-5,0.000358
1.462000E-5,0.000340
1.463000E-5,0.000353
1.464000E-5,0.000361
1.465000E-5,0.000331
1.466000E-5,0.000296
1.467000E-5,0.000282
1.468000E-5,0.000296
1.469000E-5,0.000306
1.470000E-5,0.000272
1.471000E-5,0.000248
1.472000E-5,0.000239
1.473000E-5,0.000230
1.474000E-5,0.000232
1.475000E-5,0.000207
1.476000E-5,0.000173
1.477000E-5,0.000153
1.478000E-5,0.000145
1.479000E-5,0.000126
1.480000E-5,7.605106E-5
1.481000E-5,3.962708E-5
1.482000E-5,2.391341E-5
1.483000E-5,2.234084E-5
1.484000E-5,1.884946E-5
1.485000E-5,-1.950480E-5
1.486000E-5,-5.058236E-5
1.487000E-5,-8.431622E-5
1.488000E-5,-8.365056E-5
1.489000E-5,-5.180178E-5
1.490000E-5,-6.766846E-5
1.491000E-5,-8.090073E-5
1.492000E-5,-0.000103
1.493000E-5,-0.000119
1.494000E-5,-0.000118
1.495000E-5,-0.000156
1.496000E-5,-0.000188
1.497000E-5,-0.000209
1.498000E-5,-0.000210
1.499000E-5,-0.000199
1.500000E-5,-0.000219
1.501000E-5,-0.000237
1.502000E-5,-0.000247
1.503000E-5,-0.000245
1.504000E-5,-0.000232
1.505000E-5,-0.000265
1.506000E-5,-0.000297
1.507000E-5,-0.000305
1.508000E-5,-0.000308
1.509000E-5,-0.000299
1.510000E-5,-0.000317
1.511000E-5,-0.000333
1.512000E-5,-0.000333
1.513000E-5,-0.000321
1.514000E-5,-0.000286
1.515000E-5,-0.000300
1.516000E-5,-0.000330
1.517000E-5,-0.000322
1.518000E-5,-0.000296
1.519000E-5,-0.000261
1.520000E-5,-0.000277
1.521000E-5,-0.000316
1.522000E-5,-0.000314
1.523000E-5,-0.000292
1.524000E-5,-0.000278
1.525000E-5,-0.000313
1.526000E-5,-0.000362
1.527000E-5,-0.000355
1.528000E-5,-0.000337
1.529000E-5,-0.000343
1.530000E-5,-0.000378
1.531000E-5,-0.000412
1.532000E-5,-0.000389
1.533000E-5,-0.000371
1.534000E-5,-0.000393
1.535000E-5,-0.000422
1.536000E-5,-0.000457
1.537000E-5,-0.000437
1.538000E-5,-0.000404
1.539000E-5,-0.000395
1.540000E-5,-0.000383
1.541000E-5,-0.000385
1.542000E-5,-0.000352
1.543000E-5,-0.000307
1.544000E-5,-0.000293
1.545000E-5,-0.000298
1.546000E-5,-0.000322
1.547000E-5,-0.000314
1.548000E-5,-0.000291
1.549000E-5,-0.000271
1.550000E-5,-0.000248
1.551000E-5,-0.000246
1.552000E-5,-0.000236
1.553000E-5,-0.000227
1.554000E-5,-0.000219
1.555000E-5,-0.000219
1.556000E-5,-0.000212
1.557000E-5,-0.000181
1.558000E-5,-0.000150
1.559000E-5,-0.000118
1.560000E-5,-0.000115
1.561000E-5,-0.000121
1.562000E-5,-9.937411E-5
1.563000E-5,-6.879687E-5
1.564000E-5,-3.535977E-5
1.565000E-5,-3.418335E-5
1.566000E-5,-3.105510E-5
1.567000E-5,-8.570662E-6
1.568000E-5,7.267854E-6
1.569000E-5,8.912316E-6
1.570000E-5,-1.282647E-5
1.571000E-5,-1.820186E-5
1.572000E-5,-4.153447E-8
1.573000E-5,9.677286E-6
1.574000E-5,9.309546E-6
1.575000E-5,1.171460E-6
1.576000E-5,3.044623E-6
1.577000E-5,1.455566E-5
1.578000E-5,3.671947E-7
1.579000E-5,-1.718154E-5
1.580000E-5,-2.434233E-5
1.581000E-5,-3.508517E-5
1.582000E-5,-3.760655E-5
1.583000E-5,-5.163063E-5
1.584000E-5,-8.059476E-5
1.585000E-5,-0.000104
1.586000E-5,-0.000125
1.587000E-5,-0.000124
1.588000E-5,-0.000115
1.589000E-5,-0.000119
1.590000E-5,-0.000133
1.591000E-5,-0.000167
1.592000E-5,-0.000183
1.593000E-5,-0.000187
1.594000E-5,-0.000217
1.595000E-5,-0.000226
1.596000E-5,-0.000230
1.597000E-5,-0.000236
1.598000E-5,-0.000237
1.599000E-5,-0.000245
1.600000E-5,-0.000236
1.601000E-5,-0.000244
1.602000E-5,-0.000253
1.603000E-5,-0.000240
1.604000E-5,-0.000237
1.605000E-5,-0.000231
1.606000E-5,-0.000239
1.607000E-5,-0.000243
1.608000E-5,-0.000236
1.609000E-5,-0.000245
1.610000E-5,-0.000234
1.611000E-5,-0.000234
1.612000E-5,-0.000232
1.613000E-5,-0.000200
1.614000E-5,-0.000193
1.615000E-5,-0.000194
1.616000E-5,-0.000192
1.617000E-5,-0.000188
1.618000E-5,-0.000174
1.619000E-5,-0.000164
1.620000E-5,-0.000155
1.621000E-5,-0.000142
1.622000E-5,-0.000121
1.623000E-5,-0.000102
1.624000E-5,-9.425151E-5
1.625000E-5,-8.825785E-5
1.626000E-5,-7.846444E-5
1.627000E-5,-5.919993E-5
1.628000E-5,-3.084465E-5
1.629000E-5,-1.126041E-5
1.630000E-5,-7.922498E-6
1.631000E-5,1.278560E-5
1.632000E-5,4.047709E-5
1.633000E-5,4.571489E-5
1.634000E-5,3.709134E-5
1.635000E-5,3.455657E-5
1.636000E-5,5.925539E-5
1.637000E-5,7.712121E-5
1.638000E-5,8.255208E-5
1.639000E-5,8.959640E-5
1.640000E-5,9.624118E-5
1.641000E-5,0.000128
1.642000E-5,0.000144
1.643000E-5,0.000144
1.644000E-5,0.000148
1.645000E-5,0.000148
1.646000E-5,0.000169
1.647000E-5,0.000188
1.648000E-5,0.000195
1.649000E-5,0.000192
1.650000E-5,0.000194
1.651000E-5,0.000231
1.652000E-5,0.000257
1.653000E-5,0.000264
1.654000E-5,0.000258
1.655000E-5,0.000260
1.656000E-5,0.000291
1.657000E-5,0.000294
1.658000E-5,0.000299
1.659000E-5,0.000320
1.660000E-5,0.000334
1.661000E-5,0.000358
1.662000E-5,0.000359
1.663000E-5,0.000355
1.664000E-5,0.000372
1.665000E-5,0.000388
1.666000E-5,0.000413
1.667000E-5,0.000432
1.668000E-5,0.000446
1.669000E-5,0.000456
1.670000E-5,0.000476
1.671000E-5,0.000511
1.672000E-5,0.000521
1.673000E-5,0.000518
1.674000E-5,0.000509
1.675000E-5,0.000507
1.676000E-5,0.000517
1.677000E-5,0.000506
1.678000E-5,0.000486
1.679000E-5,0.000476
1.680000E-5,0.000488
1.681000E-5,0.000510
1.682000E-5,0.000490
1.683000E-5,0.000489
1.684000E-5,0.000508
1.685000E-5,0.000523
1.686000E-5,0.000539
1.687000E-5,0.000542
1.688000E-5,0.000548
1.689000E-5,0.000541
1.690000E-5,0.000530
1.691000E-5,0.000534
1.692000E-5,0.000521
1.693000E-5,0.000510
1.694000E-5,0.000510
1.695000E-5,0.000488
1.696000E-5,0.000468
1.697000E-5,0.000435
1.698000E-5,0.000410
1.699000E-5,0.000392
1.700000E-5,0.000373
1.701000E-5,0.000384
1.702000E-5,0.000373
1.703000E-5,0.000349
1.704000E-5,0.000333
1.705000E-5,0.000325
1.706000E-5,0.000339
1.707000E-5,0.000343
1.708000E-5,0.000339
1.709000E-5,0.000330
1.710000E-5,0.000326
1.711000E-5,0.000332
1.712000E-5,0.000313
1.713000E-5,0.000274
1.714000E-5,0.000247
1.715000E-5,0.000227
1.716000E-5,0.000214
1.717000E-5,0.000185
1.718000E-5,0.000154
1.719000E-5,0.000138
1.720000E-5,0.000114
1.721000E-5,8.398790E-5
1.722000E-5,3.970468E-5
1.723000E-5,2.825798E-6
1.724000E-5,-7.441762E-6
1.725000E-5,-2.120259E-5
1.726000E-5,-5.190276E-5
1.727000E-5,-0.000107
1.728000E-5,-0.000151
1.729000E-5,-0.000167
1.730000E-5,-0.000163
1.731000E-5,-0.000166
1.732000E-5,-0.000194
1.733000E-5,-0.000224
1.734000E-5,-0.000236
1.735000E-5,-0.000229
1.736000E-5,-0.000230
1.737000E-5,-0.000258
1.738000E-5,-0.000290
1.739000E-5,-0.000297
1.740000E-5,-0.000296
1.741000E-5,-0.000306
1.742000E-5,-0.000325
1.743000E-5,-0.000352
1.744000E-5,-0.000347
1.745000E-5,-0.000322
1.746000E-5,-0.000311
1.747000E-5,-0.000296
1.748000E-5,-0.000320
1.749000E-5,-0.000336
1.750000E-5,-0.000327
1.751000E-5,-0.000329
1.752000E-5,-0.000314
1.753000E-5,-0.000316
1.754000E-5,-0.000316
1.755000E-5,-0.000301
1.756000E-5,-0.000317
1.757000E-5,-0.000332
1.758000E-5,-0.000336
1.759000E-5,-0.000328
1.760000E-5,-0.000319
1.761000E-5,-0.000334
1.762000E-5,-0.000338
1.763000E-5,-0.000355
1.764000E-5,-0.000380
1.765000E-5,-0.000386
1.766000E-5,-0.000407
1.767000E-5,-0.000415
1.768000E-5,-0.000409
1.769000E-5,-0.000411
1.770000E-5,-0.000408
1.771000E-5,-0.000446
1.772000E-5,-0.000479
1.773000E-5,-0.000459
1.774000E-5,-0.000441
1.775000E-5,-0.000446
1.776000E-5,-0.000475
1.777000E-5,-0.000480
1.778000E-5,-0.000470
1.779000E-5,-0.000473
1.780000E-5,-0.000489
1.781000E-5,-0.000519
1.782000E-5,-0.000505
1.783000E-5,-0.000459
1.784000E-5,-0.000441
1.785000E-5,-0.000447
1.786000E-5,-0.000475
1.787000E-5,-0.000466
1.788000E-5,-0.000428
1.789000E-5,-0.000414
1.790000E-5,-0.000423
1.791000E-5,-0.000452
1.792000E-5,-0.000431
1.793000E-5,-0.000399
1.794000E-5,-0.000415
1.795000E-5,-0.000431
1.796000E-5,-0.000426
1.797000E-5,-0.000389
1.798000E-5,-0.000358
1.799000E-5,-0.000362
1.800000E-5,-0.000359
1.801000E-5,-0.000332
1.802000E-5,-0.000270
1.803000E-5,-0.000234
1.804000E-5,-0.000249
1.805000E-5,-0.000246
1.806000E-5,-0.000216
1.807000E-5,-0.000172
1.808000E-5,-0.000167
1.809000E-5,-0.000212
1.810000E-5,-0.000222
1.811000E-5,-0.000211
1.812000E-5,-0.000191
1.813000E-5,-0.000180
1.814000E-5,-0.000207
1.815000E-5,-0.000201
1.816000E-5,-0.000167
1.817000E-5,-0.000145
1.818000E-5,-0.000125
1.819000E-5,-0.000128
1.820000E-5,-0.000123
1.821000E-5,-8.874653E-5
1.822000E-5,-5.578194E-5
1.823000E-5,-5.697128E-5
1.824000E-5,-7.939450E-5
1.825000E-5,-6.590200E-5
1.826000E-5,-3.338285E-5
1.827000E-5,-5.900129E-6
1.828000E-5,-7.914813E-7
1.829000E-5,-1.697802E-6
1.830000E-5,4.793397E-5
1.831000E-5,9.953954E-5
1.832000E-5,0.000130
1.833000E-5,0.000122
1.834000E-5,9.025423E-5
1.835000E-5,9.882017E-5
1.836000E-5,0.000117
1.837000E-5,0.000128
1.838000E-5,0.000105
1.839000E-5,0.000105
1.840000E-5,0.000157
1.841000E-5,0.000175
1.842000E-5,0.000166
1.843000E-5,0.000156
1.844000E-5,0.000178
1.845000E-5,0.000224
1.846000E-5,0.000243
1.847000E-5,0.000237
1.848000E-5,0.000229
1.849000E-5,0.000248
1.850000E-5,0.000284
1.851000E-5,0.000281
1.852000E-5,0.000256
1.853000E-5,0.000230
1.854000E-5,0.000224
1.855000E-5,0.000255
1.856000E-5,0.000260
1.857000E-5,0.000260
1.858000E-5,0.000261
1.859000E-5,0.000267
1.860000E-5,0.000302
1.861000E-5,0.000288
1.862000E-5,0.000281
1.863000E-5,0.000287
1.864000E-5,0.000298
1.865000E-5,0.000315
1.866000E-5,0.000282
1.867000E-5,0.000258
1.868000E-5,0.000257
1.869000E-5,0.000276
1.870000E-5,0.000297
1.871000E-5,0.000275
1.872000E-5,0.000266
1.873000E-5,0.000268
1.874000E-5,0.000265
1.875000E-5,0.000266
1.876000E-5,0.000244
1.877000E-5,0.000237
1.878000E-5,0.000225
1.879000E-5,0.000212
1.880000E-5,0.000216
1.881000E-5,0.000191
1.882000E-5,0.000173
1.883000E-5,0.000148
1.884000E-5,0.000147
1.885000E-5,0.000180
1.886000E-5,0.000177
1.887000E-5,0.000168
1.888000E-5,0.000153
1.889000E-5,0.000156
1.890000E-5,0.000180
1.891000E-5,0.000168
1.892000E-5,0.000154
1.893000E-5,0.000125
1.894000E-5,0.000114
1.895000E-5,0.000127
1.896000E-5,0.000114
1.897000E-5,9.547885E-5
1.898000E-5,5.211286E-5
1.899000E-5,4.717615E-5
1.900000E-5,6.954235E-5
1.901000E-5,4.435593E-5
1.902000E-5,2.003281E-5
1.903000E-5,1.600255E-5
1.904000E-5,3.540521E-5
1.905000E-5,5.015023E-5
1.906000E-5,2.930899E-5
1.907000E-5,7.251197E-6
1.908000E-5,-1.205918E-5
1.909000E-5,4.418289E-7
1.910000E-5,-1.117126E-6
1.911000E-5,-4.729143E-5
1.912000E-5,-5.477847E-5
1.913000E-5,-4.053735E-5
1.914000E-5,-1.316373E-5
1.915000E-5,-8.148890E-6
1.916000E-5,-4.798178E-5
1.917000E-5,-6.878481E-5
1.918000E-5,-7.511473E-5
1.919000E-5,-5.390064E-5
1.920000E-5,-7.223568E-5
1.921000E-5,-0.000133
1.922000E-5,-0.000161
1.923000E-5,-0.000163
1.924000E-5,-0.000132
1.925000E-5,-0.000141
1.926000E-5,-0.000162
1.927000E-5,-0.000158
1.928000E-5,-0.000153
1.929000E-5,-0.000129
1.930000E-5,-0.000132
1.931000E-5,-0.000142
1.932000E-5,-0.000137
1.933000E-5,-0.000137
1.934000E-5,-0.000117
1.935000E-5,-0.000110
1.936000E-5,-0.000127
1.937000E-5,-0.000123
1.938000E-5,-9.840470E-5
1.939000E-5,-8.203989E-5
1.940000E-5,-9.723163E-5
1.941000E-5,-0.000127
1.942000E-5,-0.000138
1.943000E-5,-0.000130
1.944000E-5,-0.000113
1.945000E-5,-0.000122
1.946000E-5,-0.000158
1.947000E-5,-0.000162
1.948000E-5,-0.000127
1.949000E-5,-0.000112
1.950000E-5,-0.000145
1.951000E-5,-0.000166
1.952000E-5,-0.000154
1.953000E-5,-0.000154
1.954000E-5,-0.000168
1.955000E-5,-0.000192
1.956000E-5,-0.000198
1.957000E-5,-0.000187
1.958000E-5,-0.000194
1.959000E-5,-0.000203
1.960000E-5,-0.000205
1.961000E-5,-0.000207
1.962000E-5,-0.000196
1.963000E-5,-0.000198
1.964000E-5,-0.000195
1.965000E-5,-0.000184
1.966000E-5,-0.000179
1.967000E-5,-0.000171
1.968000E-5,-0.000160
1.969000E-5,-0.000161
1.970000E-5,-0.000160
1.971000E-5,-0.000149
1.972000E-5,-0.000147
1.973000E-5,-0.000142
1.974000E-5,-0.000129
1.975000E-5,-0.000116
1.976000E-5,-0.000106
1.977000E-5,-0.000103
1.978000E-5,-0.000101
1.979000E-5,-8.643149E-5
1.980000E-5,-8.416866E-5
1.981000E-5,-7.408959E-5
1.982000E-5,-7.009583E-5
1.983000E-5,-7.973788E-5
1.984000E-5,-6.947572E-5
1.985000E-5,-6.531279E-5
1.986000E-5,-5.926029E-5
1.987000E-5,-5.916708E-5
1.988000E-5,-5.704323E-5
1.989000E-5,-2.965860E-5
1.990000E-5,-9.068546E-6
1.991000E-5,6.888847E-6
1.992000E-5,2.224505E-5
1.993000E-5,3.505611E-5
1.994000E-5,5.316591E-5
1.995000E-5,6.663837E-5
1.996000E-5,7.173945E-5
1.997000E-5,7.071344E-5
1.998000E-5,7.544294E-5
1.999000E-5,9.930431E-5
2.000000E-5,0.000101
2.001000E-5,8.452923E-5
2.002000E-5,9.207420E-5
2.003000E-5,0.000103
2.004000E-5,0.000131
2.005000E-5,0.000156
2.006000E-5,0.000170
2.007000E-5,0.000185
2.008000E-5,0.000209
2.009000E-5,0.000253
2.010000E-5,0.000264
2.011000E-5,0.000266
2.012000E-5,0.000272
2.013000E-5,0.000267
2.014000E-5,0.000290
2.015000E-5,0.000303
2.016000E-5,0.000302
2.017000E-5,0.000298
2.018000E-5,0.000306
2.019000E-5,0.000338
2.020000E-5,0.000347
2.021000E-5,0.000344
2.022000E-5,0.000346
2.023000E-5,0.000343
2.024000E-5,0.000358
2.025000E-5,0.000373
2.026000E-5,0.000374
2.027000E-5,0.000358
2.028000E-5,0.000337
2.029000E-5,0.000334
2.030000E-5,0.000341
2.031000E-5,0.000352
2.032000E-5,0.000333
2.033000E-5,0.000310
2.034000E-5,0.000309
2.035000E-5,0.000292
2.036000E-5,0.000259
2.037000E-5,0.000223
2.038000E-5,0.000183
2.039000E-5,0.000159
2.040000E-5,0.000144
2.041000E-5,0.000135
2.042000E-5,0.000112
2.043000E-5,8.027216E-5
2.044000E-5,7.489220E-5
2.045000E-5,5.599858E-5
2.046000E-5,4.160211E-5
2.047000E-5,2.961630E-5
2.048000E-5,5.466951E-7
2.049000E-5,-8.024192E-6
2.050000E-5,-1.043832E-5
2.051000E-5,-1.092651E-6
2.052000E-5,4.024107E-6
2.053000E-5,-6.593775E-6
2.054000E-5,-1.098137E-5
2.055000E-5,-7.420048E-6
2.056000E-5,1.932956E-5
2.057000E-5,2.563550E-5
2.058000E-5,2.778359E-5
2.059000E-5,4.146341E-5
2.060000E-5,4.097606E-5
2.061000E-5,5.598230E-5
2.062000E-5,7.811597E-5
2.063000E-5,0.000103
2.064000E-5,0.000125
2.065000E-5,0.000121
2.066000E-5,0.000130
2.067000E-5,0.000147
2.068000E-5,0.000163
2.069000E-5,0.000180
2.070000E-5,0.000176
2.071000E-5,0.000188
2.072000E-5,0.000184
2.073000E-5,0.000177
2.074000E-5,0.000190
2.075000E-5,0.000179
2.076000E-5,0.000193
2.077000E-5,0.000205
2.078000E-5,0.000190
2.079000E-5,0.000190
2.080000E-5,0.000187
2.081000E-5,0.000207
2.082000E-5,0.000209
2.083000E-5,0.000194
2.084000E-5,0.000194
2.085000E-5,0.000172
2.086000E-5,0.000180
2.087000E-5,0.000173
2.088000E-5,0.000149
2.089000E-5,0.000145
2.090000E-5,0.000112
2.091000E-5,0.000107
2.092000E-5,0.000100
2.093000E-5,4.680061E-5
2.094000E-5,2.447282E-5
2.095000E-5,1.070289E-5
2.096000E-5,1.310699E-6
2.097000E-5,-3.851192E-6
2.098000E-5,-4.183658E-5
2.099000E-5,-5.892762E-5
2.100000E-5,-5.975581E-5
2.101000E-5,-6.240312E-5
2.102000E-5,-6.485575E-5
2.103000E-5,-8.265614E-5
2.104000E-5,-7.830351E-5
2.105000E-5,-7.204821E-5
2.106000E-5,-8.533654E-5
2.107000E-5,-0.000112
2.108000E-5,-0.000144
2.109000E-5,-0.000147
2.110000E-5,-0.000160
2.111000E-5,-0.000164
2.112000E-5,-0.000157
2.113000E-5,-0.000163
2.114000E-5,-0.000156
2.115000E-5,-0.000178
2.116000E-5,-0.000177
2.117000E-5,-0.000178
2.118000E-5,-0.000216
2.119000E-5,-0.000226
2.120000E-5,-0.000252
2.121000E-5,-0.000258
2.122000E-5,-0.000239
2.123000E-5,-0.000246
2.124000E-5,-0.000257
2.125000E-5,-0.000276
2.126000E-5,-0.000262
2.127000E-5,-0.000238
2.128000E-5,-0.000241
2.129000E-5,-0.000227
2.130000E-5,-0.000226
2.131000E-5,-0.000225
2.132000E-5,-0.000215
2.133000E-5,-0.000223
2.134000E-5,-0.000198
2.135000E-5,-0.000188
2.136000E-5,-0.000182
2.137000E-5,-0.000166
2.138000E-5,-0.000178
2.139000E-5,-0.000163
2.140000E-5,-0.000147
2.141000E-5,-0.000122
2.142000E-5,-0.000103
2.143000E-5,-0.000131
2.144000E-5,-0.000147
2.145000E-5,-0.000121
2.146000E-5,-6.990966E-5
2.147000E-5,-6.184174E-5
2.148000E-5,-0.000101
2.149000E-5,-9.502327E-5
2.150000E-5,-6.426076E-5
2.151000E-5,-5.007610E-5
2.152000E-5,-5.382018E-5
2.153000E-5,-7.676611E-5
2.154000E-5,-7.737772E-5
2.155000E-5,-7.201963E-5
2.156000E-5,-7.840248E-5
2.157000E-5,-9.025476E-5
2.158000E-5,-0.000109
2.159000E-5,-0.000106
2.160000E-5,-8.343413E-5
2.161000E-5,-7.701573E-5
2.162000E-5,-8.625453E-5
2.163000E-5,-0.000107
2.164000E-5,-0.000116
2.165000E-5,-0.000106
2.166000E-5,-0.000100
2.167000E-5,-0.000110
2.168000E-5,-0.000119
2.169000E-5,-0.000110
2.170000E-5,-0.000107
2.171000E-5,-0.000111
2.172000E-5,-0.000116
2.173000E-5,-0.000124
2.174000E-5,-0.000108
2.175000E-5,-6.902500E-5
2.176000E-5,-4.905926E-5
2.177000E-5,-5.500730E-5
2.178000E-5,-5.676520E-5
2.179000E-5,-4.088864E-5
2.180000E-5,-2.747861E-5
2.181000E-5,-3.200368E-5
2.182000E-5,-5.185074E-5
2.183000E-5,-5.922869E-5
2.184000E-5,-5.264515E-5
2.185000E-5,-3.068458E-5
2.186000E-5,-9.489136E-6
2.187000E-5,7.051899E-6
2.188000E-5,2.102751E-5
2.189000E-5,3.833811E-5
2.190000E-5,6.077583E-5
2.191000E-5,7.451951E-5
2.192000E-5,7.986957E-5
2.193000E-5,6.935880E-5
2.194000E-5,5.912949E-5
2.195000E-5,5.889899E-5
2.196000E-5,6.247049E-5
2.197000E-5,5.998586E-5
2.198000E-5,4.390354E-5
2.199000E-5,2.640593E-5
2.200000E-5,2.699634E-5
2.201000E-5,3.917735E-5
2.202000E-5,4.696210E-5
2.203000E-5,3.884694E-5
2.204000E-5,1.836153E-6
2.205000E-5,-2.603833E-5
2.206000E-5,-2.370522E-5
2.207000E-5,-2.919123E-5
2.208000E-5,-2.471707E-5
2.209000E-5,-3.202447E-5
2.210000E-5,-5.455086E-5
2.211000E-5,-5.285052E-5
2.212000E-5,-6.861262E-5
2.213000E-5,-6.620366E-5
2.214000E-5,-5.212694E-5
2.215000E-5,-4.431750E-5
2.216000E-5,-3.867074E-5
2.217000E-5,-6.813589E-5
2.218000E-5,-9.252028E-5
2.219000E-5,-9.643509E-5
2.220000E-5,-0.000100
2.221000E-5,-0.000105
2.222000E-5,-9.276332E-5
2.223000E-5,-7.080661E-5
2.224000E-5,-6.897650E-5
2.225000E-5,-7.876151E-5
2.226000E-5,-6.475375E-5
2.227000E-5,-5.310639E-5
2.228000E-5,-4.763489E-5
2.229000E-5,-4.811917E-5
2.230000E-5,-5.628049E-5
2.231000E-5,-6.405255E-5
2.232000E-5,-7.338011E-5
2.233000E-5,-6.476733E-5
2.234000E-5,-5.637289E-5
2.235000E-5,-6.179840E-5
2.236000E-5,-7.275449E-5
2.237000E-5,-8.707714E-5
2.238000E-5,-9.879243E-5
2.239000E-5,-0.000102
2.240000E-5,-0.000105
2.241000E-5,-9.637326E-5
2.242000E-5,-7.798490E-5
2.243000E-5,-8.346474E-5
2.244000E-5,-9.832434E-5
2.245000E-5,-0.000103
2.246000E-5,-0.000103
2.247000E-5,-0.000109
2.248000E-5,-0.000126
2.249000E-5,-0.000137
2.250000E-5,-0.000150
2.251000E-5,-0.000163
2.252000E-5,-0.000156
2.253000E-5,-0.000161
2.254000E-5,-0.000175
2.255000E-5,-0.000172
2.256000E-5,-0.000166
2.257000E-5,-0.000142
2.258000E-5,-0.000130
2.259000E-5,-0.000130
2.260000E-5,-0.000118
2.261000E-5,-0.000117
2.262000E-5,-9.746461E-5
2.263000E-5,-8.065463E-5
2.264000E-5,-8.765029E-5
2.265000E-5,-9.813598E-5
2.266000E-5,-0.000110
2.267000E-5,-0.000114
2.268000E-5,-0.000101
2.269000E-5,-8.915785E-5
2.270000E-5,-0.000109
2.271000E-5,-0.000111
2.272000E-5,-7.522741E-5
2.273000E-5,-5.190125E-5
2.274000E-5,-4.878166E-5
2.275000E-5,-7.289526E-5
2.276000E-5,-7.463733E-5
2.277000E-5,-4.123638E-5
2.278000E-5,-3.037376E-5
2.279000E-5,-5.288652E-5
2.280000E-5,-8.225374E-5
2.281000E-5,-7.932861E-5
2.282000E-5,-2.782923E-5
2.283000E-5,6.268440E-6
2.284000E-5,-1.723448E-5
2.285000E-5,-5.538000E-5
2.286000E-5,-5.900759E-5
2.287000E-5,-9.965172E-6
2.288000E-5,3.725762E-7
2.289000E-5,-4.017473E-5
2.290000E-5,-8.110166E-5
2.291000E-5,-8.154072E-5
2.292000E-5,-4.298952E-5
2.293000E-5,-2.716452E-5
2.294000E-5,-4.878828E-5
2.295000E-5,-7.730574E-5
2.296000E-5,-7.162758E-5
2.297000E-5,-3.691281E-5
2.298000E-5,-3.450359E-5
2.299000E-5,-5.932339E-5
2.300000E-5,-6.176656E-5
2.301000E-5,-4.071501E-5
2.302000E-5,4.871564E-6
2.303000E-5,2.157028E-5
2.304000E-5,1.236665E-5
2.305000E-5,1.319634E-5
2.306000E-5,1.785965E-5
2.307000E-5,4.368890E-5
2.308000E-5,5.878269E-5
2.309000E-5,5.186062E-5
2.310000E-5,5.288386E-5
2.311000E-5,7.321108E-5
2.312000E-5,0.000112
2.313000E-5,0.000124
2.314000E-5,0.000128
2.315000E-5,0.000148
2.316000E-5,0.000170
2.317000E-5,0.000201
2.318000E-5,0.000196
2.319000E-5,0.000186
2.320000E-5,0.000207
2.321000E-5,0.000227
2.322000E-5,0.000254
2.323000E-5,0.000262
2.324000E-5,0.000259
2.325000E-5,0.000252
2.326000E-5,0.000247
2.327000E-5,0.000271
2.328000E-5,0.000275
2.329000E-5,0.000289
2.330000E-5,0.000302
2.331000E-5,0.000317
2.332000E-5,0.000349
2.333000E-5,0.000343
2.334000E-5,0.000364
2.335000E-5,0.000376
2.336000E-5,0.000366
2.337000E-5,0.000367
2.338000E-5,0.000340
2.339000E-5,0.000352
2.340000E-5,0.000366
2.341000E-5,0.000347
2.342000E-5,0.000344
2.343000E-5,0.000332
2.344000E-5,0.000342
2.345000E-5,0.000338
2.346000E-5,0.000323
2.347000E-5,0.000328
2.348000E-5,0.000311
2.349000E-5,0.000331
2.350000E-5,0.000315
2.351000E-5,0.000277
2.352000E-5,0.000293
2.353000E-5,0.000298
2.354000E-5,0.000322
2.355000E-5,0.000323
2.356000E-5,0.000299
2.357000E-5,0.000296
2.358000E-5,0.000289
2.359000E-5,0.000301
2.360000E-5,0.000269
2.361000E-5,0.000223
2.362000E-5,0.000221
2.363000E-5,0.000203
2.364000E-5,0.000197
2.365000E-5,0.000167
2.366000E-5,0.000125
2.367000E-5,0.000121
2.368000E-5,0.000125
2.369000E-5,0.000144
2.370000E-5,0.000126
2.371000E-5,0.000101
2.372000E-5,0.000109
2.373000E-5,0.000101
2.374000E-5,0.000106
2.375000E-5,7.833729E-5
2.376000E-5,4.743550E-5
2.377000E-5,5.645138E-5
2.378000E-5,4.950707E-5
2.379000E-5,4.662778E-5
2.380000E-5,1.658942E-5
2.381000E-5,-1.042067E-5
2.382000E-5,-7.279346E-6
2.383000E-5,-1.007014E-5
2.384000E-5,-3.030135E-6
2.385000E-5,-3.120883E-5
2.386000E-5,-4.858446E-5
2.387000E-5,-3.610607E-5
2.388000E-5,-4.928445E-5
2.389000E-5,-6.384115E-5
2.390000E-5,-9.329927E-5
2.391000E-5,-0.000104
2.392000E-5,-0.000106
2.393000E-5,-0.000138
2.394000E-5,-0.000156
2.395000E-5,-0.000195
2.396000E-5,-0.000226
2.397000E-5,-0.000232
2.398000E-5,-0.000265
2.399000E-5,-0.000304
2.400000E-5,-0.000341
2.401000E-5,-0.000344
2.402000E-5,-0.000341
2.403000E-5,-0.000370
2.404000E-5,-0.000397
2.405000E-5,-0.000441
2.406000E-5,-0.000456
2.407000E-5,-0.000447
2.408000E-5,-0.000452
2.409000E-5,-0.000451
2.410000E-5,-0.000461
2.411000E-5,-0.000462
2.412000E-5,-0.000451
2.413000E-5,-0.000453
2.414000E-5,-0.000452
2.415000E-5,-0.000484
2.416000E-5,-0.000517
2.417000E-5,-0.000524
2.418000E-5,-0.000525
2.419000E-5,-0.000522
2.420000E-5,-0.000556
2.421000E-5,-0.000560
2.422000E-5,-0.000547
2.423000E-5,-0.000562
2.424000E-5,-0.000550
2.425000E-5,-0.000565
2.426000E-5,-0.000564
2.427000E-5,-0.000539
2.428000E-5,-0.000547
2.429000E-5,-0.000548
2.430000E-5,-0.000571
2.431000E-5,-0.000577
2.432000E-5,-0.000574
2.433000E-5,-0.000586
2.434000E-5,-0.000585
2.435000E-5,-0.000608
2.436000E-5,-0.000604
2.437000E-5,-0.000580
2.438000E-5,-0.000560
2.439000E-5,-0.000547
2.440000E-5,-0.000568
2.441000E-5,-0.000557
2.442000E-5,-0.000517
2.443000E-5,-0.000495
2.444000E-5,-0.000477
2.445000E-5,-0.000460
2.446000E-5,-0.000432
2.447000E-5,-0.000397
2.448000E-5,-0.000383
2.449000E-5,-0.000374
2.450000E-5,-0.000366
2.451000E-5,-0.000352
2.452000E-5,-0.000334
2.453000E-5,-0.000311
2.454000E-5,-0.000284
2.455000E-5,-0.000257
2.456000E-5,-0.000214
2.457000E-5,-0.000174
2.458000E-5,-0.000156
2.459000E-5,-0.000135
2.460000E-5,-0.000105
2.461000E-5,-8.126251E-5
2.462000E-5,-3.138513E-5
2.463000E-5,3.417656E-5
2.464000E-5,8.366244E-5
2.465000E-5,0.000104
2.466000E-5,0.000135
2.467000E-5,0.000198
2.468000E-5,0.000264
2.469000E-5,0.000327
2.470000E-5,0.000352
2.471000E-5,0.000380
2.472000E-5,0.000433
2.473000E-5,0.000476
2.474000E-5,0.000503
2.475000E-5,0.000522
2.476000E-5,0.000565
2.477000E-5,0.000629
2.478000E-5,0.000674
2.479000E-5,0.000693
2.480000E-5,0.000710
2.481000E-5,0.000747
2.482000E-5,0.000795
2.483000E-5,0.000830
2.484000E-5,0.000849
2.485000E-5,0.000862
2.486000E-5,0.000899
2.487000E-5,0.000952
2.488000E-5,0.000988
2.489000E-5,0.001016
2.490000E-5,0.001041
2.491000E-5,0.001092
2.492000E-5,0.001156
2.493000E-5,0.001194
2.494000E-5,0.001209
2.495000E-5,0.001222
2.496000E-5,0.001255
2.497000E-5,0.001290
2.498000E-5,0.001307
2.499000E-5,0.001307
2.500000E-5,0.001304
2.501000E-5,0.001311
2.502000E-5,0.001324
2.503000E-5,0.001334
2.504000E-5,0.001338
2.505000E-5,0.001343
2.506000E-5,0.001369
2.507000E-5,0.001400
2.508000E-5,0.001395
2.509000E-5,0.001378
2.510000E-5,0.001368
2.511000E-5,0.001365
2.512000E-5,0.001368
2.513000E-5,0.001346
2.514000E-5,0.001318
2.515000E-5,0.001322
2.516000E-5,0.001328
2.517000E-5,0.001330
2.518000E-5,0.001349
2.519000E-5,0.001356
2.520000E-5,0.001337
2.521000E-5,0.001334
2.522000E-5,0.001325
2.523000E-5,0.001284
2.524000E-5,0.001261
2.525000E-5,0.001239
2.526000E-5,0.001209
2.527000E-5,0.001208
2.528000E-5,0.001208
2.529000E-5,0.001181
2.530000E-5,0.001139
2.531000E-5,0.001105
2.532000E-5,0.001084
2.533000E-5,0.001046
2.534000E-5,0.000991
2.535000E-5,0.000921
2.536000E-5,0.000855
2.537000E-5,0.000817
2.538000E-5,0.000782
2.539000E-5,0.000733
2.540000E-5,0.000666
2.541000E-5,0.000603
2.542000E-5,0.000570
2.543000E-5,0.000539
2.544000E-5,0.000481
2.545000E-5,0.000417
2.546000E-5,0.000391
2.547000E-5,0.000391
2.548000E-5,0.000362
2.549000E-5,0.000307
2.550000E-5,0.000249
2.551000E-5,0.000200
2.552000E-5,0.000160
2.553000E-5,9.794345E-5
2.554000E-5,3.817755E-5
2.555000E-5,-7.781535E-6
2.556000E-5,-4.620066E-5
2.557000E-5,-8.895358E-5
2.558000E-5,-0.000163
2.559000E-5,-0.000236
2.560000E-5,-0.000263
2.561000E-5,-0.000281
2.562000E-5,-0.000331
2.563000E-5,-0.000408
2.564000E-5,-0.000485
2.565000E-5,-0.000527
2.566000E-5,-0.000556
2.567000E-5,-0.000600
2.568000E-5,-0.000670
2.569000E-5,-0.000745
2.570000E-5,-0.000783
2.571000E-5,-0.000802
2.572000E-5,-0.000851
2.573000E-5,-0.000924
2.574000E-5,-0.000994
2.575000E-5,-0.001030
2.576000E-5,-0.001045
2.577000E-5,-0.001090
2.578000E-5,-0.001158
2.579000E-5,-0.001216
2.580000E-5,-0.001242
2.581000E-5,-0.001260
2.582000E-5,-0.001308
2.583000E-5,-0.001356
2.584000E-5,-0.001390
2.585000E-5,-0.001414
2.586000E-5,-0.001430
2.587000E-5,-0.001463
2.588000E-5,-0.001508
2.589000E-5,-0.001539
2.590000E-5,-0.001544
2.591000E-5,-0.001553
2.592000E-5,-0.001578
2.593000E-5,-0.001611
2.594000E-5,-0.001634
2.595000E-5,-0.001632
2.596000E-5,-0.001646
2.597000E-5,-0.001685
2.598000E-5,-0.001721
2.599000E-5,-0.001748
2.600000E-5,-0.001752
2.601000E-5,-0.001768
2.602000E-5,-0.001809
2.603000E-5,-0.001832
2.604000E-5,-0.001841
2.605000E-5,-0.001848
2.606000E-5,-0.001869
2.607000E-5,-0.001901
2.608000E-5,-0.001912
2.609000E-5,-0.001914
2.610000E-5,-0.001923
2.611000E-5,-0.001942
2.612000E-5,-0.001962
2.613000E-5,-0.001956
2.614000E-5,-0.001949
2.615000E-5,-0.001955
2.616000E-5,-0.001956
2.617000E-5,-0.001957
2.618000E-5,-0.001932
2.619000E-5,-0.001884
2.620000E-5,-0.001863
2.621000E-5,-0.001856
2.622000E-5,-0.001837
2.623000E-5,-0.001798
2.624000E-5,-0.001754
2.625000E-5,-0.001730
2.626000E-5,-0.001729
2.627000E-5,-0.001742
2.628000E-5,-0.001718
2.629000E-5,-0.001665
2.630000E-5,-0.001637
2.631000E-5,-0.001637
2.632000E-5,-0.001622
2.633000E-5,-0.001570
2.634000E-5,-0.001518
2.635000E-5,-0.001495
2.636000E-5,-0.001503
2.637000E-5,-0.001514
2.638000E-5,-0.001492
2.639000E-5,-0.001452
2.640000E-5,-0.001408
2.641000E-5,-0.001395
2.642000E-5,-0.001397
2.643000E-5,-0.001346
2.644000E-5,-0.001286
2.645000E-5,-0.001237
2.646000E-5,-0.001198
2.647000E-5,-0.001163
2.648000E-5,-0.001094
2.649000E-5,-0.001035
2.650000E-5,-0.000995
2.651000E-5,-0.000964
2.652000E-5,-0.000935
2.653000E-5,-0.000874
2.654000E-5,-0.000814
2.655000E-5,-0.000767
2.656000E-5,-0.000715
2.657000E-5,-0.000659
2.658000E-5,-0.000597
2.659000E-5,-0.000531
2.660000E-5,-0.000471
2.661000E-5,-0.000408
2.662000E-5,-0.000346
2.663000E-5,-0.000290
2.664000E-5,-0.000218
2.665000E-5,-0.000156
2.666000E-5,-0.000110
2.667000E-5,-5.904287E-5
2.668000E-5,1.500363E-5
2.669000E-5,9.211386E-5
2.670000E-5,0.000139
2.671000E-5,0.000180
2.672000E-5,0.000223
2.673000E-5,0.000270
2.674000E-5,0.000337
2.675000E-5,0.000396
2.676000E-5,0.000441
2.677000E-5,0.000495
2.678000E-5,0.000535
2.679000E-5,0.000572
2.680000E-5,0.000616
2.681000E-5,0.000664
2.682000E-5,0.000709
2.683000E-5,0.000728
2.684000E-5,0.000761
2.685000E-5,0.000808
2.686000E-5,0.000853
2.687000E-5,0.000901
2.688000E-5,0.000938
2.689000E-5,0.000978
2.690000E-5,0.001019
2.691000E-5,0.001059
2.692000E-5,0.001101
2.693000E-5,0.001138
2.694000E-5,0.001190
2.695000E-5,0.001236
2.696000E-5,0.001272
2.697000E-5,0.001321
2.698000E-5,0.001374
2.699000E-5,0.001420
2.700000E-5,0.001457
2.701000E-5,0.001498
2.702000E-5,0.001541
2.703000E-5,0.001588
2.704000E-5,0.001648
2.705000E-5,0.001697
2.706000E-5,0.001734
2.707000E-5,0.001768
2.708000E-5,0.001795
2.709000E-5,0.001830
2.710000E-5,0.001851
2.711000E-5,0.001871
2.712000E-5,0.001906
2.713000E-5,0.001929
2.714000E-5,0.001953
2.715000E-5,0.001943
2.716000E-5,0.001929
2.717000E-5,0.001978
2.718000E-5,0.002023
2.719000E-5,0.002043
2.720000E-5,0.002026
2.721000E-5,0.002009
2.722000E-5,0.002036
2.723000E-5,0.002056
2.724000E-5,0.002061
2.725000E-5,0.002042
2.726000E-5,0.002037
2.727000E-5,0.002061
2.728000E-5,0.002067
2.729000E-5,0.002081
2.730000E-5,0.002064
2.731000E-5,0.002037
2.732000E-5,0.002073
2.733000E-5,0.002109
2.734000E-5,0.002129
2.735000E-5,0.002108
2.736000E-5,0.002086
2.737000E-5,0.002120
2.738000E-5,0.002146
2.739000E-5,0.002148
2.740000E-5,0.002116
2.741000E-5,0.002064
2.742000E-5,0.002065
2.743000E-5,0.002078
2.744000E-5,0.002062
2.745000E-5,0.002025
2.746000E-5,0.001991
2.747000E-5,0.002010
2.748000E-5,0.002029
2.749000E-5,0.002033
2.750000E-5,0.002019
2.751000E-5,0.002000
2.752000E-5,0.002012
2.753000E-5,0.002041
2.754000E-5,0.002032
2.755000E-5,0.001995
2.756000E-5,0.001986
2.757000E-5,0.001999
2.758000E-5,0.002022
2.759000E-5,0.002046
2.760000E-5,0.002035
2.761000E-5,0.002023
2.762000E-5,0.002034
2.763000E-5,0.002046
2.764000E-5,0.002031
2.765000E-5,0.001975
2.766000E-5,0.001939
2.767000E-5,0.001938
2.768000E-5,0.001931
2.769000E-5,0.001910
2.770000E-5,0.001886
2.771000E-5,0.001874
2.772000E-5,0.001860
2.773000E-5,0.001829
2.774000E-5,0.001814
2.775000E-5,0.001797
2.776000E-5,0.001750
2.777000E-5,0.001698
2.778000E-5,0.001659
2.779000E-5,0.001627
2.780000E-5,0.001574
2.781000E-5,0.001521
2.782000E-5,0.001482
2.783000E-5,0.001435
2.784000E-5,0.001394
2.785000E-5,0.001359
2.786000E-5,0.001299
2.787000E-5,0.001244
2.788000E-5,0.001204
2.789000E-5,0.001145
2.790000E-5,0.001073
2.791000E-5,0.000996
2.792000E-5,0.000935
2.793000E-5,0.000885
2.794000E-5,0.000827
2.795000E-5,0.000775
2.796000E-5,0.000720
2.797000E-5,0.000664
2.798000E-5,0.000611
2.799000E-5,0.000549
2.800000E-5,0.000495
2.801000E-5,0.000442
2.802000E-5,0.000390
2.803000E-5,0.000331
2.804000E-5,0.000275
2.805000E-5,0.000216
2.806000E-5,0.000160
2.807000E-5,0.000123
2.808000E-5,8.402966E-5
2.809000E-5,1.374609E-5
2.810000E-5,-5.007312E-5
2.811000E-5,-8.620207E-5
2.812000E-5,-0.000123
2.813000E-5,-0.000164
2.814000E-5,-0.000214
2.815000E-5,-0.000269
2.816000E-5,-0.000323
2.817000E-5,-0.000364
2.818000E-5,-0.000410
2.819000E-5,-0.000478
2.820000E-5,-0.000559
2.821000E-5,-0.000634
2.822000E-5,-0.000701
2.823000E-5,-0.000759
2.824000E-5,-0.000844
2.825000E-5,-0.000927
2.826000E-5,-0.000992
2.827000E-5,-0.001057
2.828000E-5,-0.001094
2.829000E-5,-0.001168
2.830000E-5,-0.001270
2.831000E-5,-0.001334
2.832000E-5,-0.001381
2.833000E-5,-0.001411
2.834000E-5,-0.001456
2.835000E-5,-0.001531
2.836000E-5,-0.001602
2.837000E-5,-0.001665
2.838000E-5,-0.001703
2.839000E-5,-0.001757
2.840000E-5,-0.001836
2.841000E-5,-0.001901
2.842000E-5,-0.001948
2.843000E-5,-0.001995
2.844000E-5,-0.002062
2.845000E-5,-0.002142
2.846000E-5,-0.002207
2.847000E-5,-0.002262
2.848000E-5,-0.002313
2.849000E-5,-0.002369
2.850000E-5,-0.002446
2.851000E-5,-0.002512
2.852000E-5,-0.002559
2.853000E-5,-0.002580
2.854000E-5,-0.002603
2.855000E-5,-0.002665
2.856000E-5,-0.002727
2.857000E-5,-0.002776
2.858000E-5,-0.002814
2.859000E-5,-0.002869
2.860000E-5,-0.002946
2.861000E-5,-0.002995
2.862000E-5,-0.003014
2.863000E-5,-0.003022
2.864000E-5,-0.003077
2.865000E-5,-0.003159
2.866000E-5,-0.003194
2.867000E-5,-0.003220
2.868000E-5,-0.003258
2.869000E-5,-0.003325
2.870000E-5,-0.003382
2.871000E-5,-0.003377
2.872000E-5,-0.003377
2.873000E-5,-0.003405
2.874000E-5,-0.003456
2.875000E-5,-0.003491
2.876000E-5,-0.003479
2.877000E-5,-0.003478
2.878000E-5,-0.003487
2.879000E-5,-0.003515
2.880000E-5,-0.003541
2.881000E-5,-0.003523
2.882000E-5,-0.003522
2.883000E-5,-0.003541
2.884000E-5,-0.003561
2.885000E-5,-0.003568
2.886000E-5,-0.003531
2.887000E-5,-0.003499
2.888000E-5,-0.003503
2.889000E-5,-0.003520
2.890000E-5,-0.003511
2.891000E-5,-0.003461
2.892000E-5,-0.003421
2.893000E-5,-0.003407
2.894000E-5,-0.003403
2.895000E-5,-0.003383
2.896000E-5,-0.003327
2.897000E-5,-0.003283
2.898000E-5,-0.003265
2.899000E-5,-0.003255
2.900000E-5,-0.003208
2.901000E-5,-0.003131
2.902000E-5,-0.003082
2.903000E-5,-0.003058
2.904000E-5,-0.003037
2.905000E-5,-0.002965
2.906000E-5,-0.002873
2.907000E-5,-0.002829
2.908000E-5,-0.002806
2.909000E-5,-0.002762
2.910000E-5,-0.002662
2.911000E-5,-0.002554
2.912000E-5,-0.002488
2.913000E-5,-0.002431
2.914000E-5,-0.002375
2.915000E-5,-0.002264
2.916000E-5,-0.002123
2.917000E-5,-0.002033
2.918000E-5,-0.001968
2.919000E-5,-0.001889
2.920000E-5,-0.001753
2.921000E-5,-0.001611
2.922000E-5,-0.001529
2.923000E-5,-0.001457
2.924000E-5,-0.001349
2.925000E-5,-0.001177
2.926000E-5,-0.001019
2.927000E-5,-0.000932
2.928000E-5,-0.000838
2.929000E-5,-0.000700
2.930000E-5,-0.000518
2.931000E-5,-0.000366
2.932000E-5,-0.000282
2.933000E-5,-0.000187
2.934000E-5,-2.909021E-5
2.935000E-5,0.000173
2.936000E-5,0.000310
2.937000E-5,0.000389
2.938000E-5,0.000510
2.939000E-5,0.000687
2.940000E-5,0.000889
2.941000E-5,0.001037
2.942000E-5,0.001126
2.943000E-5,0.001234
2.944000E-5,0.001391
2.945000E-5,0.001574
2.946000E-5,0.001695
2.947000E-5,0.001758
2.948000E-5,0.001865
2.949000E-5,0.002022
2.950000E-5,0.002193
2.951000E-5,0.002324
2.952000E-5,0.002397
2.953000E-5,0.002481
2.954000E-5,0.002625
2.955000E-5,0.002785
2.956000E-5,0.002880
2.957000E-5,0.002927
2.958000E-5,0.003017
2.959000E-5,0.003142
2.960000E-5,0.003272
2.961000E-5,0.003379
2.962000E-5,0.003456
2.963000E-5,0.003559
2.964000E-5,0.003669
2.965000E-5,0.003776
2.966000E-5,0.003849
2.967000E-5,0.003887
2.968000E-5,0.003969
2.969000E-5,0.004059
2.970000E-5,0.004143
2.971000E-5,0.004206
2.972000E-5,0.004250
2.973000E-5,0.004320
2.974000E-5,0.004405
2.975000E-5,0.004482
2.976000E-5,0.004541
2.977000E-5,0.004570
2.978000E-5,0.004613
2.979000E-5,0.004675
2.980000E-5,0.004711
2.981000E-5,0.004738
2.982000E-5,0.004720
2.983000E-5,0.004695
2.984000E-5,0.004729
2.985000E-5,0.004742
2.986000E-5,0.004716
2.987000E-5,0.004681
2.988000E-5,0.004658
2.989000E-5,0.004644
2.990000E-5,0.004596
2.991000E-5,0.004533
2.992000E-5,0.004468
2.993000E-5,0.004415
2.994000E-5,0.004383
2.995000E-5,0.004331
2.996000E-5,0.004277
2.997000E-5,0.004220
2.998000E-5,0.004149
2.999000E-5,0.004105
3.000000E-5,0.004050
3.001000E-5,0.003947
3.002000E-5,0.003833
3.003000E-5,0.003734
3.004000E-5,0.003650
3.005000E-5,0.003537
3.006000E-5,0.003391
3.007000E-5,0.003266
3.008000E-5,0.003170
3.009000E-5,0.003088
3.010000E-5,0.002987
3.011000E-5,0.002873
3.012000E-5,0.002747
3.013000E-5,0.002608
3.014000E-5,0.002492
3.015000E-5,0.002362
3.016000E-5,0.002234
3.017000E-5,0.002091
3.018000E-5,0.001945
3.019000E-5,0.001851
3.020000E-5,0.001721
3.021000E-5,0.001578
3.022000E-5,0.001447
3.023000E-5,0.001300
3.024000E-5,0.001164
3.025000E-5,0.000997
3.026000E-5,0.000840
3.027000E-5,0.000698
3.028000E-5,0.000544
3.029000E-5,0.000400
3.030000E-5,0.000251
3.031000E-5,0.000116
3.032000E-5,-1.307918E-5
3.033000E-5,-0.000147
3.034000E-5,-0.000273
3.035000E-5,-0.000428
3.036000E-5,-0.000577
3.037000E-5,-0.000731
3.038000E-5,-0.000887
3.039000E-5,-0.001002
3.040000E-5,-0.001150
3.041000E-5,-0.001300
3.042000E-5,-0.001431
3.043000E-5,-0.001557
3.044000E-5,-0.001670
3.045000E-5,-0.001815
3.046000E-5,-0.001952
3.047000E-5,-0.002087
3.048000E-5,-0.002215
3.049000E-5,-0.002324
3.050000E-5,-0.002452
3.051000E-5,-0.002571
3.052000E-5,-0.002682
3.053000E-5,-0.002779
3.054000E-5,-0.002863
3.055000E-5,-0.002979
3.056000E-5,-0.003091
3.057000E-5,-0.003166
3.058000E-5,-0.003246
3.059000E-5,-0.003344
3.060000E-5,-0.003450
3.061000E-5,-0.003530
3.062000E-5,-0.003581
3.063000E-5,-0.003626
3.064000E-5,-0.003670
3.065000E-5,-0.003708
3.066000E-5,-0.003741
3.067000E-5,-0.003764
3.068000E-5,-0.003797
3.069000E-5,-0.003840
3.070000E-5,-0.003853
3.071000E-5,-0.003857
3.072000E-5,-0.003851
3.073000E-5,-0.003845
3.074000E-5,-0.003857
3.075000E-5,-0.003843
3.076000E-5,-0.003820
3.077000E-5,-0.003790
3.078000E-5,-0.003760
3.079000E-5,-0.003738
3.080000E-5,-0.003701
3.081000E-5,-0.003665
3.082000E-5,-0.003631
3.083000E-5,-0.003603
3.084000E-5,-0.003573
3.085000E-5,-0.003520
3.086000E-5,-0.003467
3.087000E-5,-0.003426
3.088000E-5,-0.003389
3.089000E-5,-0.003325
3.090000E-5,-0.003237
3.091000E-5,-0.003167
3.092000E-5,-0.003108
3.093000E-5,-0.003044
3.094000E-5,-0.002953
3.095000E-5,-0.002852
3.096000E-5,-0.002777
3.097000E-5,-0.002693
3.098000E-5,-0.002594
3.099000E-5,-0.002470
3.100000E-5,-0.002336
3.101000E-5,-0.002219
3.102000E-5,-0.002102
3.103000E-5,-0.001969
3.104000E-5,-0.001840
3.105000E-5,-0.001723
3.106000E-5,-0.001605
3.107000E-5,-0.001491
3.108000E-5,-0.001360
3.109000E-5,-0.001227
3.110000E-5,-0.001119
3.111000E-5,-0.001003
3.112000E-5,-0.000882
3.113000E-5,-0.000765
3.114000E-5,-0.000627
3.115000E-5,-0.000499
3.116000E-5,-0.000372
3.117000E-5,-0.000240
3.118000E-5,-0.000123
3.119000E-5,3.489548E-6
3.120000E-5,0.000112
3.121000E-5,0.000222
3.122000E-5,0.000349
3.123000E-5,0.000466
3.124000E-5,0.000608
3.125000E-5,0.000736
3.126000E-5,0.000858
3.127000E-5,0.000988
3.128000E-5,0.001107
3.129000E-5,0.001246
3.130000E-5,0.001339
3.131000E-5,0.001443
3.132000E-5,0.001571
3.133000E-5,0.001680
3.134000E-5,0.001815
3.135000E-5,0.001918
3.136000E-5,0.002011
3.137000E-5,0.002121
3.138000E-5,0.002228
3.139000E-5,0.002345
3.140000E-5,0.002421
3.141000E-5,0.002492
3.142000E-5,0.002569
3.143000E-5,0.002642
3.144000E-5,0.002742
3.145000E-5,0.002808
3.146000E-5,0.002860
3.147000E-5,0.002908
3.148000E-5,0.002951
3.149000E-5,0.003009
3.150000E-5,0.003038
3.151000E-5,0.003048
3.152000E-5,0.003083
3.153000E-5,0.003130
3.154000E-5,0.003169
3.155000E-5,0.003168
3.156000E-5,0.003161
3.157000E-5,0.003166
3.158000E-5,0.003155
3.159000E-5,0.003136
3.160000E-5,0.003092
3.161000E-5,0.003048
3.162000E-5,0.003008
3.163000E-5,0.002995
3.164000E-5,0.002991
3.165000E-5,0.002936
3.166000E-5,0.002885
3.167000E-5,0.002847
3.168000E-5,0.002798
3.169000E-5,0.002750
3.170000E-5,0.002686
3.171000E-5,0.002636
3.172000E-5,0.002587
3.173000E-5,0.002531
3.174000E-5,0.002480
3.175000E-5,0.002391
3.176000E-5,0.002301
3.177000E-5,0.002215
3.178000E-5,0.002117
3.179000E-5,0.002025
3.180000E-5,0.001922
3.181000E-5,0.001833
3.182000E-5,0.001762
3.183000E-5,0.001677
3.184000E-5,0.001591
3.185000E-5,0.001490
3.186000E-5,0.001418
3.187000E-5,0.001358
3.188000E-5,0.001275
3.189000E-5,0.001185
3.190000E-5,0.001073
3.191000E-5,0.000981
3.192000E-5,0.000899
3.193000E-5,0.000801
3.194000E-5,0.000707
3.195000E-5,0.000604
3.196000E-5,0.000502
3.197000E-5,0.000415
3.198000E-5,0.000332
3.199000E-5,0.000259
3.200000E-5,0.000158
3.201000E-5,5.820044E-5
3.202000E-5,-1.271438E-5
3.203000E-5,-9.846666E-5
3.204000E-5,-0.000173
3.205000E-5,-0.000253
3.206000E-5,-0.000348
3.207000E-5,-0.000430
3.208000E-5,-0.000506
3.209000E-5,-0.000567
3.210000E-5,-0.000642
3.211000E-5,-0.000729
3.212000E-5,-0.000796
3.213000E-5,-0.000853
3.214000E-5,-0.000898
3.215000E-5,-0.000958
3.216000E-5,-0.001021
3.217000E-5,-0.001063
3.218000E-5,-0.001095
3.219000E-5,-0.001115
3.220000E-5,-0.001167
3.221000E-5,-0.001227
3.222000E-5,-0.001268
3.223000E-5,-0.001311
3.224000E-5,-0.001346
3.225000E-5,-0.001408
3.226000E-5,-0.001470
3.227000E-5,-0.001495
3.228000E-5,-0.001515
3.229000E-5,-0.001537
3.230000E-5,-0.001576
3.231000E-5,-0.001611
3.232000E-5,-0.001615
3.233000E-5,-0.001618
3.234000E-5,-0.001620
3.235000E-5,-0.001638
3.236000E-5,-0.001648
3.237000E-5,-0.001616
3.238000E-5,-0.001593
3.239000E-5,-0.001592
3.240000E-5,-0.001594
3.241000E-5,-0.001580
3.242000E-5,-0.001552
3.243000E-5,-0.001523
3.244000E-5,-0.001500
3.245000E-5,-0.001497
3.246000E-5,-0.001487
3.247000E-5,-0.001451
3.248000E-5,-0.001412
3.249000E-5,-0.001366
3.250000E-5,-0.001320
3.251000E-5,-0.001276
3.252000E-5,-0.001222
3.253000E-5,-0.001167
3.254000E-5,-0.001123
3.255000E-5,-0.001085
3.256000E-5,-0.001034
3.257000E-5,-0.000966
3.258000E-5,-0.000902
3.259000E-5,-0.000842
3.260000E-5,-0.000789
3.261000E-5,-0.000728
3.262000E-5,-0.000662
3.263000E-5,-0.000604
3.264000E-5,-0.000528
3.265000E-5,-0.000450
3.266000E-5,-0.000365
3.267000E-5,-0.000282
3.268000E-5,-0.000220
3.269000E-5,-0.000169
3.270000E-5,-0.000120
3.271000E-5,-4.487401E-5
3.272000E-5,2.919716E-5
3.273000E-5,0.000106
3.274000E-5,0.000184
3.275000E-5,0.000257
3.276000E-5,0.000341
3.277000E-5,0.000413
3.278000E-5,0.000479
3.279000E-5,0.000533
3.280000E-5,0.000572
3.281000E-5,0.000639
3.282000E-5,0.000703
3.283000E-5,0.000757
3.284000E-5,0.000807
3.285000E-5,0.000836
3.286000E-5,0.000879
3.287000E-5,0.000923
3.288000E-5,0.000975
3.289000E-5,0.001007
3.290000E-5,0.001020
3.291000E-5,0.001078
3.292000E-5,0.001114
3.293000E-5,0.001132
3.294000E-5,0.001134
3.295000E-5,0.001126
3.296000E-5,0.001157
3.297000E-5,0.001182
3.298000E-5,0.001219
3.299000E-5,0.001238
3.300000E-5,0.001243
3.301000E-5,0.001280
3.302000E-5,0.001286
3.303000E-5,0.001283
3.304000E-5,0.001270
3.305000E-5,0.001250
3.306000E-5,0.001262
3.307000E-5,0.001255
3.308000E-5,0.001257
3.309000E-5,0.001260
3.310000E-5,0.001237
3.311000E-5,0.001266
3.312000E-5,0.001267
3.313000E-5,0.001218
3.314000E-5,0.001175
3.315000E-5,0.001133
3.316000E-5,0.001110
3.317000E-5,0.001063
3.318000E-5,0.001015
3.319000E-5,0.000980
3.320000E-5,0.000947
3.321000E-5,0.000939
3.322000E-5,0.000910
3.323000E-5,0.000867
3.324000E-5,0.000827
3.325000E-5,0.000785
3.326000E-5,0.000764
3.327000E-5,0.000735
3.328000E-5,0.000711
3.329000E-5,0.000701
3.330000E-5,0.000683
3.331000E-5,0.000657
3.332000E-5,0.000613
3.333000E-5,0.000564
3.334000E-5,0.000524
3.335000E-5,0.000481
3.336000E-5,0.000446
3.337000E-5,0.000402
3.338000E-5,0.000344
3.339000E-5,0.000293
3.340000E-5,0.000253
3.341000E-5,0.000207
3.342000E-5,0.000142
3.343000E-5,9.326876E-5
3.344000E-5,5.977440E-5
3.345000E-5,8.003066E-6
3.346000E-5,-4.380720E-5
3.347000E-5,-8.392038E-5
3.348000E-5,-0.000117
3.349000E-5,-0.000138
3.350000E-5,-0.000163
3.351000E-5,-0.000194
3.352000E-5,-0.000223
3.353000E-5,-0.000255
3.354000E-5,-0.000290
3.355000E-5,-0.000326
3.356000E-5,-0.000351
3.357000E-5,-0.000367
3.358000E-5,-0.000405
3.359000E-5,-0.000444
3.360000E-5,-0.000482
3.361000E-5,-0.000498
3.362000E-5,-0.000505
3.363000E-5,-0.000542
3.364000E-5,-0.000582
3.365000E-5,-0.000620
3.366000E-5,-0.000631
3.367000E-5,-0.000625
3.368000E-5,-0.000652
3.369000E-5,-0.000674
3.370000E-5,-0.000694
3.371000E-5,-0.000720
3.372000E-5,-0.000744
3.373000E-5,-0.000778
3.374000E-5,-0.000791
3.375000E-5,-0.000794
3.376000E-5,-0.000791
3.377000E-5,-0.000818
3.378000E-5,-0.000852
3.379000E-5,-0.000855
3.380000E-5,-0.000873
3.381000E-5,-0.000880
3.382000E-5,-0.000895
3.383000E-5,-0.000939
3.384000E-5,-0.000961
3.385000E-5,-0.000982
3.386000E-5,-0.000994
3.387000E-5,-0.001007
3.388000E-5,-0.001039
3.389000E-5,-0.001055
3.390000E-5,-0.001079
3.391000E-5,-0.001086
3.392000E-5,-0.001088
3.393000E-5,-0.001107
3.394000E-5,-0.001114
3.395000E-5,-0.001127
3.396000E-5,-0.001134
3.397000E-5,-0.001152
3.398000E-5,-0.001166
3.399000E-5,-0.001168
3.400000E-5,-0.001192
3.401000E-5,-0.001197
3.402000E-5,-0.001209
3.403000E-5,-0.001239
3.404000E-5,-0.001274
3.405000E-5,-0.001299
3.406000E-5,-0.001295
3.407000E-5,-0.001327
3.408000E-5,-0.001364
3.409000E-5,-0.001378
3.410000E-5,-0.001395
3.411000E-5,-0.001396
3.412000E-5,-0.001420
3.413000E-5,-0.001448
3.414000E-5,-0.001462
3.415000E-5,-0.001496
3.416000E-5,-0.001519
3.417000E-5,-0.001558
3.418000E-5,-0.001601
3.419000E-5,-0.001620
3.420000E-5,-0.001646
3.421000E-5,-0.001674
3.422000E-5,-0.001726
3.423000E-5,-0.001779
3.424000E-5,-0.001817
3.425000E-5,-0.001840
3.426000E-5,-0.001869
3.427000E-5,-0.001921
3.428000E-5,-0.001960
3.429000E-5,-0.001998
3.430000E-5,-0.002019
3.431000E-5,-0.002032
3.432000E-5,-0.002080
3.433000E-5,-0.002125
3.434000E-5,-0.002172
3.435000E-5,-0.002203
3.436000E-5,-0.002236
3.437000E-5,-0.002304
3.438000E-5,-0.002362
3.439000E-5,-0.002423
3.440000E-5,-0.002471
3.441000E-5,-0.002514
3.442000E-5,-0.002571
3.443000E-5,-0.002618
3.444000E-5,-0.002659
3.445000E-5,-0.002698
3.446000E-5,-0.002745
3.447000E-5,-0.002790
3.448000E-5,-0.002818
3.449000E-5,-0.002854
3.450000E-5,-0.002889
3.451000E-5,-0.002941
3.452000E-5,-0.002993
3.453000E-5,-0.003018
3.454000E-5,-0.003053
3.455000E-5,-0.003081
3.456000E-5,-0.003124
3.457000E-5,-0.003169
3.458000E-5,-0.003196
3.459000E-5,-0.003233
3.460000E-5,-0.003238
3.461000E-5,-0.003266
3.462000E-5,-0.003320
3.463000E-5,-0.003345
3.464000E-5,-0.003379
3.465000E-5,-0.003366
3.466000E-5,-0.003357
3.467000E-5,-0.003365
3.468000E-5,-0.003333
3.469000E-5,-0.003337
3.470000E-5,-0.003331
3.471000E-5,-0.003325
3.472000E-5,-0.003319
3.473000E-5,-0.003285
3.474000E-5,-0.003282
3.475000E-5,-0.003259
3.476000E-5,-0.003224
3.477000E-5,-0.003189
3.478000E-5,-0.003121
3.479000E-5,-0.003072
3.480000E-5,-0.003003
3.481000E-5,-0.002923
3.482000E-5,-0.002847
3.483000E-5,-0.002747
3.484000E-5,-0.002689
3.485000E-5,-0.002616
3.486000E-5,-0.002526
3.487000E-5,-0.002421
3.488000E-5,-0.002302
3.489000E-5,-0.002228
3.490000E-5,-0.002125
3.491000E-5,-0.002010
3.492000E-5,-0.001902
3.493000E-5,-0.001775
3.494000E-5,-0.001686
3.495000E-5,-0.001554
3.496000E-5,-0.001380
3.497000E-5,-0.001232
3.498000E-5,-0.001108
3.499000E-5,-0.001003
3.500000E-5,-0.000844
3.501000E-5,-0.000657
3.502000E-5,-0.000499
3.503000E-5,-0.000357
3.504000E-5,-0.000225
3.505000E-5,-6.129473E-5
3.506000E-5,0.000133
3.507000E-5,0.000287
3.508000E-5,0.000438
3.509000E-5,0.000601
3.510000E-5,0.000778
3.511000E-5,0.000963
3.512000E-5,0.001122
3.513000E-5,0.001305
3.514000E-5,0.001477
3.515000E-5,0.001659
3.516000E-5,0.001858
3.517000E-5,0.002029
3.518000E-5,0.002217
3.519000E-5,0.002409
3.520000E-5,0.002606
3.521000E-5,0.002783
3.522000E-5,0.002947
3.523000E-5,0.003150
3.524000E-5,0.003323
3.525000E-5,0.003487
3.526000E-5,0.003653
3.527000E-5,0.003796
3.528000E-5,0.003967
3.529000E-5,0.004109
3.530000E-5,0.004254
3.531000E-5,0.004428
3.532000E-5,0.004564
3.533000E-5,0.004706
3.534000E-5,0.004833
3.535000E-5,0.004949
3.536000E-5,0.005059
3.537000E-5,0.005141
3.538000E-5,0.005240
3.539000E-5,0.005304
3.540000E-5,0.005372
3.541000E-5,0.005467
3.542000E-5,0.005532
3.543000E-5,0.005618
3.544000E-5,0.005703
3.545000E-5,0.005756
3.546000E-5,0.005836
3.547000E-5,0.005878
3.548000E-5,0.005912
3.549000E-5,0.005961
3.550000E-5,0.005990
3.551000E-5,0.006039
3.552000E-5,0.006053
3.553000E-5,0.006053
3.554000E-5,0.006061
3.555000E-5,0.006052
3.556000E-5,0.006055
3.557000E-5,0.006059
3.558000E-5,0.006078
3.559000E-5,0.006085
3.560000E-5,0.006041
3.561000E-5,0.005984
3.562000E-5,0.005911
3.563000E-5,0.005850
3.564000E-5,0.005788
3.565000E-5,0.005719
3.566000E-5,0.005648
3.567000E-5,0.005561
3.568000E-5,0.005506
3.569000E-5,0.005425
3.570000E-5,0.005299
3.571000E-5,0.005188
3.572000E-5,0.005062
3.573000E-5,0.004965
3.574000E-5,0.004871
3.575000E-5,0.004729
3.576000E-5,0.004584
3.577000E-5,0.004450
3.578000E-5,0.004337
3.579000E-5,0.004215
3.580000E-5,0.004055
3.581000E-5,0.003888
3.582000E-5,0.003733
3.583000E-5,0.003598
3.584000E-5,0.003432
3.585000E-5,0.003245
3.586000E-5,0.003072
3.587000E-5,0.002917
3.588000E-5,0.002787
3.589000E-5,0.002637
3.590000E-5,0.002466
3.591000E-5,0.002305
3.592000E-5,0.002146
3.593000E-5,0.001984
3.594000E-5,0.001829
3.595000E-5,0.001673
3.596000E-5,0.001516
3.597000E-5,0.001363
3.598000E-5,0.001227
3.599000E-5,0.001078
3.600000E-5,0.000903
3.601000E-5,0.000753
3.602000E-5,0.000618
3.603000E-5,0.000487
3.604000E-5,0.000361
3.605000E-5,0.000196
3.606000E-5,3.952952E-5
3.607000E-5,-7.976170E-5
3.608000E-5,-0.000200
3.609000E-5,-0.000347
3.610000E-5,-0.000521
3.611000E-5,-0.000665
3.612000E-5,-0.000778
3.613000E-5,-0.000902
3.614000E-5,-0.001028
3.615000E-5,-0.001149
3.616000E-5,-0.001260
3.617000E-5,-0.001365
3.618000E-5,-0.001472
3.619000E-5,-0.001592
3.620000E-5,-0.001715
3.621000E-5,-0.001798
3.622000E-5,-0.001888
3.623000E-5,-0.001986
3.624000E-5,-0.002063
3.625000E-5,-0.002148
3.626000E-5,-0.002207
3.627000E-5,-0.002271
3.628000E-5,-0.002340
3.629000E-5,-0.002404
3.630000E-5,-0.002480
3.631000E-5,-0.002513
3.632000E-5,-0.002548
3.633000E-5,-0.002603
3.634000E-5,-0.002656
3.635000E-5,-0.002692
3.636000E-5,-0.002688
3.637000E-5,-0.002716
3.638000E-5,-0.002754
3.639000E-5,-0.002783
3.640000E-5,-0.002810
3.641000E-5,-0.002784
3.642000E-5,-0.002750
3.643000E-5,-0.002748
3.644000E-5,-0.002757
3.645000E-5,-0.002746
3.646000E-5,-0.002686
3.647000E-5,-0.002639
3.648000E-5,-0.002608
3.649000E-5,-0.002568
3.650000E-5,-0.002524
3.651000E-5,-0.002439
3.652000E-5,-0.002390
3.653000E-5,-0.002374
3.654000E-5,-0.002330
3.655000E-5,-0.002278
3.656000E-5,-0.002201
3.657000E-5,-0.002149
3.658000E-5,-0.002119
3.659000E-5,-0.002069
3.660000E-5,-0.002020
3.661000E-5,-0.001942
3.662000E-5,-0.001877
3.663000E-5,-0.001836
3.664000E-5,-0.001775
3.665000E-5,-0.001717
3.666000E-5,-0.001622
3.667000E-5,-0.001544
3.668000E-5,-0.001496
3.669000E-5,-0.001434
3.670000E-5,-0.001377
3.671000E-5,-0.001288
3.672000E-5,-0.001217
3.673000E-5,-0.001159
3.674000E-5,-0.001075
3.675000E-5,-0.001017
3.676000E-5,-0.000914
3.677000E-5,-0.000824
3.678000E-5,-0.000772
3.679000E-5,-0.000690
3.680000E-5,-0.000616
3.681000E-5,-0.000515
3.682000E-5,-0.000438
3.683000E-5,-0.000396
3.684000E-5,-0.000300
3.685000E-5,-0.000216
3.686000E-5,-0.000157
3.687000E-5,-0.000114
3.688000E-5,-7.277381E-5
3.689000E-5,-1.908078E-5
3.690000E-5,3.459724E-5
3.691000E-5,9.788953E-5
3.692000E-5,0.000137
3.693000E-5,0.000185
3.694000E-5,0.000242
3.695000E-5,0.000281
3.696000E-5,0.000328
3.697000E-5,0.000363
3.698000E-5,0.000382
3.699000E-5,0.000418
3.700000E-5,0.000465
3.701000E-5,0.000529
3.702000E-5,0.000575
3.703000E-5,0.000600
3.704000E-5,0.000628
3.705000E-5,0.000636
3.706000E-5,0.000652
3.707000E-5,0.000665
3.708000E-5,0.000676
3.709000E-5,0.000702
3.710000E-5,0.000708
3.711000E-5,0.000726
3.712000E-5,0.000729
3.713000E-5,0.000697
3.714000E-5,0.000681
3.715000E-5,0.000673
3.716000E-5,0.000677
3.717000E-5,0.000657
3.718000E-5,0.000617
3.719000E-5,0.000605
3.720000E-5,0.000600
3.721000E-5,0.000598
3.722000E-5,0.000557
3.723000E-5,0.000504
3.724000E-5,0.000486
3.725000E-5,0.000472
3.726000E-5,0.000461
3.727000E-5,0.000409
3.728000E-5,0.000339
3.729000E-5,0.000298
3.730000E-5,0.000274
3.731000E-5,0.000254
3.732000E-5,0.000190
3.733000E-5,0.000126
3.734000E-5,9.536898E-5
3.735000E-5,8.113670E-5
3.736000E-5,7.119011E-5
3.737000E-5,9.056960E-6
3.738000E-5,-5.661807E-5
3.739000E-5,-9.258164E-5
3.740000E-5,-0.000135
3.741000E-5,-0.000173
3.742000E-5,-0.000228
3.743000E-5,-0.000278
3.744000E-5,-0.000314
3.745000E-5,-0.000371
3.746000E-5,-0.000413
3.747000E-5,-0.000456
3.748000E-5,-0.000496
3.749000E-5,-0.000510
3.750000E-5,-0.000537
3.751000E-5,-0.000553
3.752000E-5,-0.000583
3.753000E-5,-0.000615
3.754000E-5,-0.000621
3.755000E-5,-0.000642
3.756000E-5,-0.000639
3.757000E-5,-0.000655
3.758000E-5,-0.000689
3.759000E-5,-0.000702
3.760000E-5,-0.000724
3.761000E-5,-0.000709
3.762000E-5,-0.000708
3.763000E-5,-0.000748
3.764000E-5,-0.000760
3.765000E-5,-0.000755
3.766000E-5,-0.000736
3.767000E-5,-0.000741
3.768000E-5,-0.000766
3.769000E-5,-0.000766
3.770000E-5,-0.000777
3.771000E-5,-0.000776
3.772000E-5,-0.000777
3.773000E-5,-0.000792
3.774000E-5,-0.000771
3.775000E-5,-0.000752
3.776000E-5,-0.000726
3.777000E-5,-0.000712
3.778000E-5,-0.000723
3.779000E-5,-0.000699
3.780000E-5,-0.000681
3.781000E-5,-0.000678
3.782000E-5,-0.000664
3.783000E-5,-0.000648
3.784000E-5,-0.000610
3.785000E-5,-0.000575
3.786000E-5,-0.000551
3.787000E-5,-0.000530
3.788000E-5,-0.000508
3.789000E-5,-0.000461
3.790000E-5,-0.000406
3.791000E-5,-0.000360
3.792000E-5,-0.000311
3.793000E-5,-0.000271
3.794000E-5,-0.000195
3.795000E-5,-0.000128
3.796000E-5,-8.383603E-5
3.797000E-5,-5.322189E-5
3.798000E-5,-3.531245E-5
3.799000E-5,3.249088E-5
3.800000E-5,8.802282E-5
3.801000E-5,0.000130
3.802000E-5,0.000158
3.803000E-5,0.000166
3.804000E-5,0.000229
3.805000E-5,0.000305
3.806000E-5,0.000361
3.807000E-5,0.000390
3.808000E-5,0.000408
3.809000E-5,0.000475
3.810000E-5,0.000534
3.811000E-5,0.000589
3.812000E-5,0.000632
3.813000E-5,0.000641
3.814000E-5,0.000687
3.815000E-5,0.000735
3.816000E-5,0.000760
3.817000E-5,0.000767
3.818000E-5,0.000770
3.819000E-5,0.000823
3.820000E-5,0.000864
3.821000E-5,0.000872
3.822000E-5,0.000869
3.823000E-5,0.000850
3.824000E-5,0.000868
3.825000E-5,0.000885
3.826000E-5,0.000886
3.827000E-5,0.000895
3.828000E-5,0.000873
3.829000E-5,0.000871
3.830000E-5,0.000890
3.831000E-5,0.000882
3.832000E-5,0.000857
3.833000E-5,0.000821
3.834000E-5,0.000803
3.835000E-5,0.000815
3.836000E-5,0.000805
3.837000E-5,0.000761
3.838000E-5,0.000707
3.839000E-5,0.000693
3.840000E-5,0.000701
3.841000E-5,0.000674
3.842000E-5,0.000616
3.843000E-5,0.000538
3.844000E-5,0.000497
3.845000E-5,0.000478
3.846000E-5,0.000434
3.847000E-5,0.000383
3.848000E-5,0.000322
3.849000E-5,0.000285
3.850000E-5,0.000271
3.851000E-5,0.000222
3.852000E-5,0.000144
3.853000E-5,6.399573E-5
3.854000E-5,2.596616E-5
3.855000E-5,-4.869190E-6
3.856000E-5,-5.980686E-5
3.857000E-5,-0.000132
3.858000E-5,-0.000209
3.859000E-5,-0.000268
3.860000E-5,-0.000321
3.861000E-5,-0.000385
3.862000E-5,-0.000480
3.863000E-5,-0.000578
3.864000E-5,-0.000631
3.865000E-5,-0.000674
3.866000E-5,-0.000733
3.867000E-5,-0.000817
3.868000E-5,-0.000886
3.869000E-5,-0.000916
3.870000E-5,-0.000957
3.871000E-5,-0.001025
3.872000E-5,-0.001117
3.873000E-5,-0.001187
3.874000E-5,-0.001225
3.875000E-5,-0.001284
3.876000E-5,-0.001351
3.877000E-5,-0.001434
3.878000E-5,-0.001499
3.879000E-5,-0.001535
3.880000E-5,-0.001588
3.881000E-5,-0.001647
3.882000E-5,-0.001728
3.883000E-5,-0.001795
3.884000E-5,-0.001836
3.885000E-5,-0.001882
3.886000E-5,-0.001932
3.887000E-5,-0.002004
3.888000E-5,-0.002052
3.889000E-5,-0.002076
3.890000E-5,-0.002106
3.891000E-5,-0.002155
3.892000E-5,-0.002208
3.893000E-5,-0.002234
3.894000E-5,-0.002268
3.895000E-5,-0.002312
3.896000E-5,-0.002348
3.897000E-5,-0.002365
3.898000E-5,-0.002379
3.899000E-5,-0.002409
3.900000E-5,-0.002439
3.901000E-5,-0.002465
3.902000E-5,-0.002471
3.903000E-5,-0.002470
3.904000E-5,-0.002489
3.905000E-5,-0.002507
3.906000E-5,-0.002506
3.907000E-5,-0.002488
3.908000E-5,-0.002478
3.909000E-5,-0.002487
3.910000E-5,-0.002493
3.911000E-5,-0.002490
3.912000E-5,-0.002476
3.913000E-5,-0.002454
3.914000E-5,-0.002449
3.915000E-5,-0.002440
3.916000E-5,-0.002412
3.917000E-5,-0.002371
3.918000E-5,-0.002333
3.919000E-5,-0.002325
3.920000E-5,-0.002314
3.921000E-5,-0.002270
3.922000E-5,-0.002213
3.923000E-5,-0.002147
3.924000E-5,-0.002101
3.925000E-5,-0.002070
3.926000E-5,-0.002011
3.927000E-5,-0.001941
3.928000E-5,-0.001877
3.929000E-5,-0.001836
3.930000E-5,-0.001795
3.931000E-5,-0.001720
3.932000E-5,-0.001641
3.933000E-5,-0.001572
3.934000E-5,-0.001519
3.935000E-5,-0.001456
3.936000E-5,-0.001365
3.937000E-5,-0.001284
3.938000E-5,-0.001213
3.939000E-5,-0.001151
3.940000E-5,-0.001080
3.941000E-5,-0.000982
3.942000E-5,-0.000871
3.943000E-5,-0.000779
3.944000E-5,-0.000729
3.945000E-5,-0.000663
3.946000E-5,-0.000547
3.947000E-5,-0.000437
3.948000E-5,-0.000354
3.949000E-5,-0.000271
3.950000E-5,-0.000171
3.951000E-5,-6.325984E-5
3.952000E-5,2.127632E-5
3.953000E-5,6.380352E-5
3.954000E-5,0.000120
3.955000E-5,0.000198
3.956000E-5,0.000264
3.957000E-5,0.000326
3.958000E-5,0.000359
3.959000E-5,0.000407
3.960000E-5,0.000465
3.961000E-5,0.000511
3.962000E-5,0.000578
3.963000E-5,0.000607
3.964000E-5,0.000631
3.965000E-5,0.000683
3.966000E-5,0.000736
3.967000E-5,0.000793
3.968000E-5,0.000812
3.969000E-5,0.000854
3.970000E-5,0.000919
3.971000E-5,0.000974
3.972000E-5,0.001030
3.973000E-5,0.001035
3.974000E-5,0.001056
3.975000E-5,0.001123
3.976000E-5,0.001166
3.977000E-5,0.001161
3.978000E-5,0.001118
3.979000E-5,0.001107
3.980000E-5,0.001133
3.981000E-5,0.001140
3.982000E-5,0.001117
3.983000E-5,0.001079
3.984000E-5,0.001078
3.985000E-5,0.001104
3.986000E-5,0.001092
3.987000E-5,0.001051
3.988000E-5,0.001006
3.989000E-5,0.000985
3.990000E-5,0.000981
3.991000E-5,0.000940
3.992000E-5,0.000868
3.993000E-5,0.000821
3.994000E-5,0.000797
3.995000E-5,0.000764
3.996000E-5,0.000711
3.997000E-5,0.000614
3.998000E-5,0.000546
3.999000E-5,0.000521

